PE UV       SUBTECH     SPECTRUM    ASCII       PEDS        4.00        
   -1
Sample876.Sample.asc
12/04/23
11:17:04.00
12/04/23
11:17:04.00
Analyst
ITO 4/1-A
250.000000
1
Lambda 950
950N6032301
PerkinElmer UV WinLab 5.1.5.0637 / 1.61.00 Lambda 900

0
0
3350/servo 860.8/2
0
0
UV/VIS
1
1
1
RBeamAtt,SBeamAtt,150mm sphere / downward view
0
0
0
0
Program
Program
3350/servo 860.8/2
3350/1 860.8/1
3350/1 860.8/1
0
1
 
 
 
0
 
860.8
319.2
860.8
Front
100
 
S:100 R:100
 
0
0
0
 
0
 
 
 
0
 
 
0
0
0
0
0
 
 
 
 
0
0
#HDR
-1
-1
#GR
nm
%T
1.0
0.0
2500.000000
-1.000000
2251
8
91.409160
-0.002689
#DATA
2500.000000	80.717156
2499.000000	80.538930
2498.000000	81.139237
2497.000000	80.102425
2496.000000	80.243606
2495.000000	80.781857
2494.000000	80.320642
2493.000000	80.678682
2492.000000	80.490073
2491.000000	80.539131
2490.000000	80.892904
2489.000000	80.506241
2488.000000	79.877331
2487.000000	80.891063
2486.000000	79.878520
2485.000000	81.223735
2484.000000	81.020453
2483.000000	80.390288
2482.000000	80.789606
2481.000000	80.728393
2480.000000	80.046583
2479.000000	81.203674
2478.000000	80.548145
2477.000000	80.850456
2476.000000	81.227290
2475.000000	80.523561
2474.000000	80.475900
2473.000000	81.115532
2472.000000	81.091027
2471.000000	81.105895
2470.000000	81.301375
2469.000000	81.724485
2468.000000	80.689632
2467.000000	81.127876
2466.000000	81.204260
2465.000000	81.186895
2464.000000	81.436999
2463.000000	81.007009
2462.000000	81.217832
2461.000000	81.628019
2460.000000	80.964481
2459.000000	81.412924
2458.000000	81.411140
2457.000000	81.013578
2456.000000	80.848522
2455.000000	81.330705
2454.000000	81.252198
2453.000000	81.985140
2452.000000	81.581427
2451.000000	81.858641
2450.000000	81.312632
2449.000000	81.486302
2448.000000	81.368825
2447.000000	81.379910
2446.000000	81.587216
2445.000000	81.739923
2444.000000	81.700244
2443.000000	81.758383
2442.000000	81.899515
2441.000000	82.065990
2440.000000	81.032605
2439.000000	81.221875
2438.000000	81.338773
2437.000000	81.736253
2436.000000	81.226478
2435.000000	81.694219
2434.000000	81.281398
2433.000000	81.679981
2432.000000	81.734360
2431.000000	82.383383
2430.000000	81.940638
2429.000000	82.087432
2428.000000	82.043467
2427.000000	82.273432
2426.000000	82.134413
2425.000000	82.181441
2424.000000	81.684653
2423.000000	81.546596
2422.000000	81.479949
2421.000000	81.658335
2420.000000	82.001806
2419.000000	81.653190
2418.000000	81.473556
2417.000000	81.700596
2416.000000	81.923740
2415.000000	81.712290
2414.000000	82.006940
2413.000000	81.728601
2412.000000	81.459621
2411.000000	81.791347
2410.000000	82.064500
2409.000000	82.403934
2408.000000	82.018913
2407.000000	81.815653
2406.000000	82.398816
2405.000000	82.262827
2404.000000	81.858625
2403.000000	82.337048
2402.000000	82.520891
2401.000000	82.402304
2400.000000	82.203409
2399.000000	82.238177
2398.000000	82.876108
2397.000000	82.962824
2396.000000	82.758206
2395.000000	82.901967
2394.000000	82.765722
2393.000000	82.603668
2392.000000	82.537655
2391.000000	82.544337
2390.000000	82.458918
2389.000000	82.457905
2388.000000	82.420596
2387.000000	82.726460
2386.000000	82.850172
2385.000000	82.800326
2384.000000	82.797569
2383.000000	82.645949
2382.000000	82.700218
2381.000000	82.648596
2380.000000	82.568047
2379.000000	82.770855
2378.000000	82.971340
2377.000000	83.142175
2376.000000	83.152238
2375.000000	82.892342
2374.000000	82.521024
2373.000000	82.650606
2372.000000	83.137641
2371.000000	83.346484
2370.000000	82.890770
2369.000000	82.675746
2368.000000	82.915269
2367.000000	83.064614
2366.000000	83.190866
2365.000000	83.154231
2364.000000	82.970582
2363.000000	82.756030
2362.000000	83.099054
2361.000000	83.521884
2360.000000	83.518108
2359.000000	83.392342
2358.000000	83.224153
2357.000000	82.996659
2356.000000	83.061952
2355.000000	83.084267
2354.000000	82.997962
2353.000000	82.852998
2352.000000	82.813447
2351.000000	82.990745
2350.000000	83.494269
2349.000000	83.476759
2348.000000	83.486480
2347.000000	83.667310
2346.000000	83.438438
2345.000000	83.290657
2344.000000	83.038706
2343.000000	82.981068
2342.000000	83.550816
2341.000000	83.575075
2340.000000	83.243579
2339.000000	83.506386
2338.000000	83.525791
2337.000000	83.446481
2336.000000	83.323173
2335.000000	83.431836
2334.000000	83.725229
2333.000000	83.731395
2332.000000	83.796939
2331.000000	83.562039
2330.000000	83.702586
2329.000000	83.565025
2328.000000	83.715565
2327.000000	83.763880
2326.000000	83.772208
2325.000000	83.669796
2324.000000	83.781820
2323.000000	83.633051
2322.000000	83.771464
2321.000000	83.998084
2320.000000	83.971751
2319.000000	84.140032
2318.000000	83.996592
2317.000000	84.049804
2316.000000	84.151777
2315.000000	84.014456
2314.000000	83.986227
2313.000000	84.029658
2312.000000	84.062191
2311.000000	83.922391
2310.000000	83.734871
2309.000000	83.881500
2308.000000	84.083504
2307.000000	84.165497
2306.000000	84.326736
2305.000000	84.166786
2304.000000	84.082993
2303.000000	84.046009
2302.000000	84.139581
2301.000000	84.101617
2300.000000	84.128018
2299.000000	84.315612
2298.000000	84.388932
2297.000000	83.987254
2296.000000	84.183006
2295.000000	84.340301
2294.000000	84.297941
2293.000000	84.078759
2292.000000	84.472577
2291.000000	84.295807
2290.000000	84.341094
2289.000000	84.265337
2288.000000	84.305691
2287.000000	84.442413
2286.000000	84.456208
2285.000000	84.266516
2284.000000	84.272292
2283.000000	84.340393
2282.000000	84.403473
2281.000000	84.530616
2280.000000	84.523676
2279.000000	84.474974
2278.000000	84.300820
2277.000000	84.519688
2276.000000	84.574423
2275.000000	84.764072
2274.000000	84.518921
2273.000000	84.379687
2272.000000	84.745740
2271.000000	84.945693
2270.000000	84.738545
2269.000000	84.943968
2268.000000	84.739418
2267.000000	84.645501
2266.000000	84.530869
2265.000000	84.741004
2264.000000	84.896011
2263.000000	84.763783
2262.000000	85.163796
2261.000000	85.077851
2260.000000	85.066487
2259.000000	84.759724
2258.000000	84.812066
2257.000000	84.908678
2256.000000	84.836529
2255.000000	84.795219
2254.000000	84.934655
2253.000000	84.795906
2252.000000	84.939593
2251.000000	85.076608
2250.000000	85.358015
2249.000000	85.046232
2248.000000	85.429929
2247.000000	84.775346
2246.000000	85.004230
2245.000000	84.855649
2244.000000	84.945727
2243.000000	85.024821
2242.000000	84.889452
2241.000000	84.898226
2240.000000	85.217691
2239.000000	85.137973
2238.000000	85.084386
2237.000000	85.075286
2236.000000	85.197723
2235.000000	85.210413
2234.000000	85.172865
2233.000000	85.089223
2232.000000	85.182207
2231.000000	85.363106
2230.000000	85.398664
2229.000000	84.989949
2228.000000	85.129256
2227.000000	85.207609
2226.000000	85.244694
2225.000000	85.256287
2224.000000	85.432568
2223.000000	85.395573
2222.000000	85.386981
2221.000000	85.287423
2220.000000	85.457451
2219.000000	85.427456
2218.000000	85.353521
2217.000000	85.293229
2216.000000	85.585040
2215.000000	85.361800
2214.000000	85.563452
2213.000000	85.498779
2212.000000	85.535106
2211.000000	85.442074
2210.000000	85.468219
2209.000000	85.487887
2208.000000	85.825331
2207.000000	85.653126
2206.000000	85.273131
2205.000000	85.748282
2204.000000	85.720708
2203.000000	85.673297
2202.000000	85.657548
2201.000000	85.705427
2200.000000	85.716250
2199.000000	85.913417
2198.000000	85.905635
2197.000000	85.909333
2196.000000	85.697531
2195.000000	85.775976
2194.000000	86.005607
2193.000000	85.908039
2192.000000	85.790919
2191.000000	85.896149
2190.000000	85.976067
2189.000000	86.031718
2188.000000	86.162966
2187.000000	85.916306
2186.000000	86.070848
2185.000000	86.133855
2184.000000	86.147215
2183.000000	86.120313
2182.000000	86.123612
2181.000000	86.114575
2180.000000	86.094240
2179.000000	86.160365
2178.000000	86.286899
2177.000000	86.264098
2176.000000	86.182391
2175.000000	86.135319
2174.000000	86.315338
2173.000000	86.170436
2172.000000	86.268225
2171.000000	86.483862
2170.000000	86.453831
2169.000000	86.339950
2168.000000	86.286921
2167.000000	86.406558
2166.000000	86.550346
2165.000000	86.550992
2164.000000	86.616788
2163.000000	86.667811
2162.000000	86.554873
2161.000000	86.732296
2160.000000	86.777401
2159.000000	86.692898
2158.000000	86.818599
2157.000000	86.675780
2156.000000	86.887373
2155.000000	86.895909
2154.000000	86.749995
2153.000000	86.913580
2152.000000	86.937077
2151.000000	86.870725
2150.000000	86.818680
2149.000000	86.849061
2148.000000	86.938722
2147.000000	86.964108
2146.000000	86.967879
2145.000000	86.867732
2144.000000	86.888566
2143.000000	87.123731
2142.000000	86.943280
2141.000000	86.792433
2140.000000	87.008089
2139.000000	87.112874
2138.000000	86.956674
2137.000000	87.021692
2136.000000	86.950622
2135.000000	86.964531
2134.000000	86.957741
2133.000000	87.081381
2132.000000	87.060000
2131.000000	87.003237
2130.000000	86.925331
2129.000000	87.004585
2128.000000	87.118633
2127.000000	87.078361
2126.000000	87.073266
2125.000000	87.070594
2124.000000	87.036953
2123.000000	87.177573
2122.000000	87.274176
2121.000000	87.230627
2120.000000	87.390089
2119.000000	87.360815
2118.000000	87.227444
2117.000000	87.234595
2116.000000	87.173482
2115.000000	87.266500
2114.000000	87.382484
2113.000000	87.332358
2112.000000	87.355535
2111.000000	87.347164
2110.000000	87.314057
2109.000000	87.355264
2108.000000	87.442924
2107.000000	87.461922
2106.000000	87.436201
2105.000000	87.493384
2104.000000	87.533528
2103.000000	87.486780
2102.000000	87.313782
2101.000000	87.311098
2100.000000	87.473472
2099.000000	87.590619
2098.000000	87.632937
2097.000000	87.602200
2096.000000	87.610989
2095.000000	87.601463
2094.000000	87.538673
2093.000000	87.515366
2092.000000	87.543285
2091.000000	87.455364
2090.000000	87.512363
2089.000000	87.603019
2088.000000	87.656716
2087.000000	87.651501
2086.000000	87.615590
2085.000000	87.723671
2084.000000	87.730636
2083.000000	87.665421
2082.000000	87.728902
2081.000000	87.653124
2080.000000	87.671303
2079.000000	87.810243
2078.000000	87.831543
2077.000000	87.746070
2076.000000	87.719451
2075.000000	87.775861
2074.000000	87.806012
2073.000000	87.754083
2072.000000	87.743763
2071.000000	87.797819
2070.000000	87.807648
2069.000000	87.858594
2068.000000	88.005409
2067.000000	88.064178
2066.000000	88.080741
2065.000000	87.943243
2064.000000	87.942803
2063.000000	88.112506
2062.000000	88.217320
2061.000000	88.168796
2060.000000	88.093798
2059.000000	88.135410
2058.000000	88.199969
2057.000000	88.189300
2056.000000	88.267026
2055.000000	88.266451
2054.000000	88.122899
2053.000000	88.213417
2052.000000	88.152901
2051.000000	88.096046
2050.000000	88.025704
2049.000000	88.164111
2048.000000	88.188656
2047.000000	88.109802
2046.000000	88.053504
2045.000000	88.157053
2044.000000	88.203555
2043.000000	88.267162
2042.000000	88.247687
2041.000000	88.238419
2040.000000	88.185142
2039.000000	88.213801
2038.000000	88.165052
2037.000000	88.278000
2036.000000	88.288997
2035.000000	88.192595
2034.000000	88.219704
2033.000000	88.347280
2032.000000	88.460540
2031.000000	88.387761
2030.000000	88.326536
2029.000000	88.246907
2028.000000	88.384705
2027.000000	88.367195
2026.000000	88.394005
2025.000000	88.380128
2024.000000	88.462321
2023.000000	88.477395
2022.000000	88.510105
2021.000000	88.415814
2020.000000	88.333892
2019.000000	88.392359
2018.000000	88.486328
2017.000000	88.448457
2016.000000	88.557121
2015.000000	88.562734
2014.000000	88.512005
2013.000000	88.579750
2012.000000	88.504296
2011.000000	88.508434
2010.000000	88.506102
2009.000000	88.552251
2008.000000	88.557472
2007.000000	88.632064
2006.000000	88.592178
2005.000000	88.624504
2004.000000	88.698227
2003.000000	88.621892
2002.000000	88.736559
2001.000000	88.657088
2000.000000	88.706428
1999.000000	88.672536
1998.000000	88.634396
1997.000000	88.734493
1996.000000	88.692166
1995.000000	88.721854
1994.000000	88.788509
1993.000000	88.761864
1992.000000	88.806654
1991.000000	88.771975
1990.000000	88.803212
1989.000000	88.819693
1988.000000	88.890193
1987.000000	88.818336
1986.000000	88.875354
1985.000000	88.792398
1984.000000	88.910301
1983.000000	88.893498
1982.000000	88.883665
1981.000000	88.861822
1980.000000	88.915396
1979.000000	88.940457
1978.000000	88.919106
1977.000000	88.934367
1976.000000	88.892703
1975.000000	88.942830
1974.000000	89.052131
1973.000000	88.959585
1972.000000	88.994709
1971.000000	88.972178
1970.000000	89.013077
1969.000000	89.012699
1968.000000	89.053357
1967.000000	89.073091
1966.000000	89.075323
1965.000000	89.073505
1964.000000	89.078922
1963.000000	89.072470
1962.000000	89.131202
1961.000000	89.128172
1960.000000	89.110448
1959.000000	89.081871
1958.000000	89.147086
1957.000000	89.185533
1956.000000	89.174766
1955.000000	89.212165
1954.000000	89.180108
1953.000000	89.196528
1952.000000	89.236857
1951.000000	89.253329
1950.000000	89.318047
1949.000000	89.208882
1948.000000	89.200218
1947.000000	89.246390
1946.000000	89.330632
1945.000000	89.295670
1944.000000	89.277758
1943.000000	89.321766
1942.000000	89.286253
1941.000000	89.370410
1940.000000	89.351328
1939.000000	89.298737
1938.000000	89.366908
1937.000000	89.376816
1936.000000	89.362456
1935.000000	89.390780
1934.000000	89.368930
1933.000000	89.394820
1932.000000	89.448069
1931.000000	89.355289
1930.000000	89.401521
1929.000000	89.440476
1928.000000	89.409024
1927.000000	89.424251
1926.000000	89.494470
1925.000000	89.419140
1924.000000	89.488246
1923.000000	89.484766
1922.000000	89.573552
1921.000000	89.538952
1920.000000	89.634205
1919.000000	89.546864
1918.000000	89.537645
1917.000000	89.531838
1916.000000	89.598670
1915.000000	89.608886
1914.000000	89.658387
1913.000000	89.655460
1912.000000	89.619657
1911.000000	89.648080
1910.000000	89.640637
1909.000000	89.636939
1908.000000	89.676295
1907.000000	89.723562
1906.000000	89.740628
1905.000000	89.745428
1904.000000	89.692729
1903.000000	89.713736
1902.000000	89.781535
1901.000000	89.787800
1900.000000	89.809344
1899.000000	89.816052
1898.000000	89.866347
1897.000000	89.834811
1896.000000	89.843367
1895.000000	89.870491
1894.000000	89.794453
1893.000000	89.778500
1892.000000	89.807463
1891.000000	89.897951
1890.000000	89.869165
1889.000000	89.960220
1888.000000	89.974692
1887.000000	89.890065
1886.000000	89.917243
1885.000000	89.992960
1884.000000	90.012432
1883.000000	89.997048
1882.000000	89.965074
1881.000000	89.940321
1880.000000	90.010808
1879.000000	89.997711
1878.000000	89.967934
1877.000000	89.959016
1876.000000	89.979132
1875.000000	89.995570
1874.000000	90.019612
1873.000000	90.012736
1872.000000	90.099643
1871.000000	90.201397
1870.000000	90.215670
1869.000000	90.164827
1868.000000	90.138694
1867.000000	90.121186
1866.000000	90.119218
1865.000000	90.152956
1864.000000	90.132555
1863.000000	90.114261
1862.000000	90.143484
1861.000000	90.180240
1860.000000	90.170998
1859.000000	90.195522
1858.000000	90.204543
1857.000000	90.204089
1856.000000	90.266795
1855.000000	90.319614
1854.000000	90.309829
1853.000000	90.312059
1852.000000	90.360920
1851.000000	90.360515
1850.000000	90.389429
1849.000000	90.434701
1848.000000	90.408510
1847.000000	90.377699
1846.000000	90.381259
1845.000000	90.333273
1844.000000	90.290747
1843.000000	90.369064
1842.000000	90.431233
1841.000000	90.428255
1840.000000	90.454845
1839.000000	90.482483
1838.000000	90.390444
1837.000000	90.294367
1836.000000	90.288655
1835.000000	90.363899
1834.000000	90.394774
1833.000000	90.398760
1832.000000	90.438474
1831.000000	90.452789
1830.000000	90.413641
1829.000000	90.395815
1828.000000	90.413887
1827.000000	90.435063
1826.000000	90.454660
1825.000000	90.450530
1824.000000	90.445323
1823.000000	90.441799
1822.000000	90.443225
1821.000000	90.449185
1820.000000	90.464222
1819.000000	90.472197
1818.000000	90.506678
1817.000000	90.544124
1816.000000	90.540007
1815.000000	90.515806
1814.000000	90.490376
1813.000000	90.517673
1812.000000	90.523808
1811.000000	90.494464
1810.000000	90.495610
1809.000000	90.545665
1808.000000	90.549531
1807.000000	90.552770
1806.000000	90.553612
1805.000000	90.588538
1804.000000	90.608953
1803.000000	90.598798
1802.000000	90.589413
1801.000000	90.609603
1800.000000	90.637169
1799.000000	90.641113
1798.000000	90.650883
1797.000000	90.614138
1796.000000	90.609248
1795.000000	90.610288
1794.000000	90.630912
1793.000000	90.651205
1792.000000	90.664206
1791.000000	90.668923
1790.000000	90.643936
1789.000000	90.637611
1788.000000	90.663386
1787.000000	90.664695
1786.000000	90.676750
1785.000000	90.712988
1784.000000	90.714812
1783.000000	90.725532
1782.000000	90.719497
1781.000000	90.729229
1780.000000	90.755110
1779.000000	90.715423
1778.000000	90.725640
1777.000000	90.745266
1776.000000	90.759941
1775.000000	90.758291
1774.000000	90.770599
1773.000000	90.728349
1772.000000	90.791166
1771.000000	90.777249
1770.000000	90.823541
1769.000000	90.810250
1768.000000	90.815874
1767.000000	90.818443
1766.000000	90.819726
1765.000000	90.800973
1764.000000	90.829286
1763.000000	90.837458
1762.000000	90.832962
1761.000000	90.851272
1760.000000	90.822370
1759.000000	90.821770
1758.000000	90.820162
1757.000000	90.855249
1756.000000	90.867174
1755.000000	90.888933
1754.000000	90.894130
1753.000000	90.912601
1752.000000	90.905718
1751.000000	90.891222
1750.000000	90.893059
1749.000000	90.932363
1748.000000	90.929509
1747.000000	90.920519
1746.000000	90.956157
1745.000000	90.954547
1744.000000	90.964213
1743.000000	90.892309
1742.000000	90.944800
1741.000000	90.952163
1740.000000	90.979573
1739.000000	90.971404
1738.000000	90.939263
1737.000000	90.935558
1736.000000	90.940115
1735.000000	91.015053
1734.000000	91.013163
1733.000000	90.989719
1732.000000	90.974810
1731.000000	91.000335
1730.000000	91.017543
1729.000000	91.025725
1728.000000	90.995994
1727.000000	91.024775
1726.000000	91.035458
1725.000000	91.011573
1724.000000	91.074322
1723.000000	91.034974
1722.000000	91.038758
1721.000000	91.018007
1720.000000	91.099142
1719.000000	91.074897
1718.000000	91.051682
1717.000000	91.098839
1716.000000	91.040951
1715.000000	91.046553
1714.000000	91.061933
1713.000000	91.098039
1712.000000	91.085945
1711.000000	91.104979
1710.000000	91.090045
1709.000000	91.146071
1708.000000	91.122586
1707.000000	91.076104
1706.000000	91.099317
1705.000000	91.130882
1704.000000	91.133168
1703.000000	91.148070
1702.000000	91.149710
1701.000000	91.132151
1700.000000	91.126265
1699.000000	91.155643
1698.000000	91.157020
1697.000000	91.145008
1696.000000	91.133989
1695.000000	91.134265
1694.000000	91.167469
1693.000000	91.155836
1692.000000	91.142055
1691.000000	91.164823
1690.000000	91.190553
1689.000000	91.150771
1688.000000	91.203776
1687.000000	91.186982
1686.000000	91.205268
1685.000000	91.233292
1684.000000	91.367415
1683.000000	91.395282
1682.000000	91.384027
1681.000000	91.378226
1680.000000	91.357136
1679.000000	91.370040
1678.000000	91.369345
1677.000000	91.392433
1676.000000	91.395575
1675.000000	91.344263
1674.000000	91.273931
1673.000000	91.263906
1672.000000	91.231645
1671.000000	91.263778
1670.000000	91.300906
1669.000000	91.409160
1668.000000	91.372841
1667.000000	91.266556
1666.000000	91.221073
1665.000000	91.220412
1664.000000	91.215119
1663.000000	91.219216
1662.000000	91.222495
