PE UV       SUBTECH     SPECTRUM    ASCII       PEDS        4.00        
   -1
Sample728.Sample.asc
11/12/23
10:36:44.00
11/12/23
10:36:44.00
Analyst
Si Po 177
300.000000
1
Lambda 950
950N6032301
PerkinElmer UV WinLab 5.1.5.0637 / 1.61.00 Lambda 900

0
0
3350/servo 860.8/2
0
0
UV/VIS
1
1
1
RBeamAtt,SBeamAtt,150mm sphere / downward view
0
0
0
0
Program
Program
3350/servo 860.8/2
3350/1 860.8/1
3350/1 860.8/1
0
1
 
 
 
0
 
860.8
319.2
860.8
Front
100
 
S:100 R:100
 
0
0
0
 
0
 
 
 
0
 
 
0
0
0
0
0
 
 
 
 
0
0
#HDR
-1
-1
#GR
nm
%T
1.0
0.0
2500.000000
-1.000000
2201
8
7.877789
2.770289
#DATA
2500.000000	5.609415
2499.000000	5.485991
2498.000000	3.639551
2497.000000	5.023220
2496.000000	4.190504
2495.000000	5.738811
2494.000000	4.016378
2493.000000	6.120393
2492.000000	4.592622
2491.000000	6.425555
2490.000000	4.076517
2489.000000	5.579060
2488.000000	4.246922
2487.000000	5.803038
2486.000000	4.927878
2485.000000	5.149233
2484.000000	4.520382
2483.000000	6.074322
2482.000000	4.683308
2481.000000	5.207172
2480.000000	4.424122
2479.000000	4.748254
2478.000000	4.286249
2477.000000	6.223866
2476.000000	4.600887
2475.000000	5.077483
2474.000000	4.478606
2473.000000	4.821206
2472.000000	5.057847
2471.000000	5.935487
2470.000000	4.386094
2469.000000	5.610818
2468.000000	3.935028
2467.000000	5.663460
2466.000000	4.848087
2465.000000	6.216753
2464.000000	4.839339
2463.000000	5.706012
2462.000000	4.222777
2461.000000	5.291066
2460.000000	5.106651
2459.000000	5.084522
2458.000000	4.215055
2457.000000	5.942834
2456.000000	5.083468
2455.000000	5.456989
2454.000000	4.688467
2453.000000	5.123664
2452.000000	4.193652
2451.000000	5.052870
2450.000000	4.433364
2449.000000	5.159415
2448.000000	4.705616
2447.000000	5.561679
2446.000000	5.142423
2445.000000	5.577490
2444.000000	4.735809
2443.000000	4.640243
2442.000000	4.625780
2441.000000	5.098652
2440.000000	4.976432
2439.000000	5.476540
2438.000000	5.019332
2437.000000	4.945583
2436.000000	4.548831
2435.000000	4.836138
2434.000000	4.015552
2433.000000	5.070637
2432.000000	5.187154
2431.000000	5.375169
2430.000000	4.833066
2429.000000	5.049532
2428.000000	4.821983
2427.000000	5.514539
2426.000000	4.524028
2425.000000	5.422282
2424.000000	4.713338
2423.000000	4.664136
2422.000000	4.592198
2421.000000	5.061172
2420.000000	4.804148
2419.000000	5.466675
2418.000000	4.485435
2417.000000	4.797007
2416.000000	4.728632
2415.000000	5.102276
2414.000000	4.672166
2413.000000	5.099835
2412.000000	4.850547
2411.000000	5.336543
2410.000000	5.188198
2409.000000	5.005296
2408.000000	4.522527
2407.000000	5.241658
2406.000000	4.867947
2405.000000	5.116438
2404.000000	5.286207
2403.000000	4.978223
2402.000000	4.840894
2401.000000	5.574330
2400.000000	5.088882
2399.000000	4.901141
2398.000000	4.763470
2397.000000	5.285863
2396.000000	5.222572
2395.000000	5.381526
2394.000000	5.039979
2393.000000	5.049513
2392.000000	4.833520
2391.000000	4.669558
2390.000000	4.818166
2389.000000	4.791236
2388.000000	5.127536
2387.000000	5.544232
2386.000000	4.937975
2385.000000	4.905656
2384.000000	4.941814
2383.000000	5.199188
2382.000000	5.066151
2381.000000	4.944774
2380.000000	5.004076
2379.000000	4.991176
2378.000000	4.964420
2377.000000	5.042115
2376.000000	5.110046
2375.000000	5.196874
2374.000000	4.954659
2373.000000	4.842377
2372.000000	4.830336
2371.000000	5.213583
2370.000000	5.224206
2369.000000	5.150846
2368.000000	5.156295
2367.000000	5.039026
2366.000000	5.112540
2365.000000	5.190578
2364.000000	4.953484
2363.000000	5.105943
2362.000000	5.420238
2361.000000	5.420213
2360.000000	5.229368
2359.000000	5.372419
2358.000000	5.664778
2357.000000	5.060007
2356.000000	5.040319
2355.000000	5.092261
2354.000000	5.267736
2353.000000	5.223319
2352.000000	5.463019
2351.000000	5.457308
2350.000000	5.142485
2349.000000	4.638893
2348.000000	5.063308
2347.000000	5.129561
2346.000000	5.213383
2345.000000	5.195475
2344.000000	5.200551
2343.000000	4.971832
2342.000000	5.168887
2341.000000	5.180211
2340.000000	5.123690
2339.000000	5.020178
2338.000000	5.273018
2337.000000	5.045134
2336.000000	5.227332
2335.000000	4.881080
2334.000000	4.854443
2333.000000	5.062332
2332.000000	5.383106
2331.000000	4.765966
2330.000000	4.918798
2329.000000	5.157692
2328.000000	5.288845
2327.000000	5.031409
2326.000000	5.356915
2325.000000	5.398503
2324.000000	5.482427
2323.000000	5.189320
2322.000000	5.624972
2321.000000	4.912931
2320.000000	5.358671
2319.000000	5.173305
2318.000000	5.090974
2317.000000	5.099127
2316.000000	5.183289
2315.000000	5.160695
2314.000000	5.411855
2313.000000	4.800219
2312.000000	5.274025
2311.000000	4.902623
2310.000000	5.371191
2309.000000	4.970808
2308.000000	5.130479
2307.000000	5.015031
2306.000000	5.360634
2305.000000	4.928126
2304.000000	5.189187
2303.000000	4.935093
2302.000000	5.134099
2301.000000	4.929412
2300.000000	5.354373
2299.000000	5.285527
2298.000000	5.160275
2297.000000	4.799508
2296.000000	5.564273
2295.000000	4.905221
2294.000000	5.324729
2293.000000	5.033678
2292.000000	5.006656
2291.000000	5.031214
2290.000000	5.161662
2289.000000	5.085362
2288.000000	5.190463
2287.000000	4.932637
2286.000000	5.040204
2285.000000	4.979840
2284.000000	5.347949
2283.000000	4.661063
2282.000000	4.895854
2281.000000	5.088241
2280.000000	5.296156
2279.000000	4.946561
2278.000000	5.411215
2277.000000	4.763164
2276.000000	5.254978
2275.000000	4.988590
2274.000000	5.386159
2273.000000	4.716141
2272.000000	5.051131
2271.000000	4.807228
2270.000000	5.158280
2269.000000	4.859527
2268.000000	4.895306
2267.000000	4.941649
2266.000000	5.215315
2265.000000	4.655147
2264.000000	4.966128
2263.000000	4.853385
2262.000000	5.214023
2261.000000	4.578765
2260.000000	5.351846
2259.000000	4.747770
2258.000000	5.053233
2257.000000	4.932831
2256.000000	5.336519
2255.000000	5.021271
2254.000000	5.025814
2253.000000	4.802950
2252.000000	5.167841
2251.000000	4.868935
2250.000000	5.171288
2249.000000	4.789519
2248.000000	5.481649
2247.000000	4.595011
2246.000000	5.176312
2245.000000	4.933113
2244.000000	4.889285
2243.000000	4.889407
2242.000000	5.033817
2241.000000	4.895043
2240.000000	5.133674
2239.000000	4.720369
2238.000000	5.161229
2237.000000	5.135960
2236.000000	4.746737
2235.000000	5.140755
2234.000000	4.808762
2233.000000	5.012003
2232.000000	4.786572
2231.000000	5.116464
2230.000000	5.015223
2229.000000	5.052223
2228.000000	5.085048
2227.000000	4.885925
2226.000000	4.612214
2225.000000	5.299378
2224.000000	4.678104
2223.000000	5.138016
2222.000000	4.702293
2221.000000	5.012626
2220.000000	4.753219
2219.000000	4.983910
2218.000000	4.951961
2217.000000	5.007172
2216.000000	4.862807
2215.000000	5.051312
2214.000000	4.697711
2213.000000	5.143527
2212.000000	4.824962
2211.000000	4.981145
2210.000000	4.648284
2209.000000	5.219746
2208.000000	4.953319
2207.000000	4.884854
2206.000000	4.777938
2205.000000	5.014189
2204.000000	4.721225
2203.000000	4.921931
2202.000000	4.938765
2201.000000	5.092238
2200.000000	4.684191
2199.000000	5.096612
2198.000000	4.904882
2197.000000	5.132639
2196.000000	4.910637
2195.000000	4.974474
2194.000000	4.973000
2193.000000	5.080169
2192.000000	4.913613
2191.000000	4.956017
2190.000000	4.984285
2189.000000	4.947335
2188.000000	4.985423
2187.000000	5.130710
2186.000000	5.147627
2185.000000	5.205497
2184.000000	4.952719
2183.000000	4.999002
2182.000000	4.962210
2181.000000	5.010389
2180.000000	5.129368
2179.000000	5.171039
2178.000000	5.140132
2177.000000	5.204621
2176.000000	5.059609
2175.000000	5.143057
2174.000000	5.041538
2173.000000	5.123784
2172.000000	4.951041
2171.000000	5.073940
2170.000000	4.998266
2169.000000	5.218513
2168.000000	5.175536
2167.000000	5.291358
2166.000000	5.079513
2165.000000	4.929199
2164.000000	4.652874
2163.000000	5.063483
2162.000000	4.994919
2161.000000	5.192495
2160.000000	5.272256
2159.000000	5.264394
2158.000000	4.993504
2157.000000	5.127614
2156.000000	4.998755
2155.000000	5.066078
2154.000000	4.952596
2153.000000	4.848354
2152.000000	5.131163
2151.000000	5.172335
2150.000000	4.926530
2149.000000	4.863401
2148.000000	4.964866
2147.000000	5.118120
2146.000000	5.068639
2145.000000	5.023757
2144.000000	4.654469
2143.000000	5.034921
2142.000000	5.051952
2141.000000	4.808095
2140.000000	4.911562
2139.000000	5.114267
2138.000000	4.991042
2137.000000	5.004615
2136.000000	4.889086
2135.000000	4.834143
2134.000000	4.906188
2133.000000	5.141098
2132.000000	5.110969
2131.000000	5.111043
2130.000000	5.085924
2129.000000	5.115593
2128.000000	5.090868
2127.000000	4.994669
2126.000000	4.976020
2125.000000	5.021697
2124.000000	5.109987
2123.000000	5.191826
2122.000000	5.060872
2121.000000	5.018383
2120.000000	5.085251
2119.000000	5.045175
2118.000000	4.962276
2117.000000	5.184999
2116.000000	5.130651
2115.000000	4.985631
2114.000000	5.098210
2113.000000	5.113938
2112.000000	4.952757
2111.000000	4.975051
2110.000000	5.024023
2109.000000	5.000066
2108.000000	5.043964
2107.000000	4.995812
2106.000000	4.997120
2105.000000	5.104355
2104.000000	5.076208
2103.000000	5.020875
2102.000000	4.990172
2101.000000	5.050629
2100.000000	5.084966
2099.000000	5.004667
2098.000000	5.102261
2097.000000	4.947102
2096.000000	5.011005
2095.000000	5.124419
2094.000000	5.072709
2093.000000	4.965560
2092.000000	5.012824
2091.000000	5.077590
2090.000000	5.045865
2089.000000	5.011061
2088.000000	5.102415
2087.000000	5.050199
2086.000000	5.108499
2085.000000	5.126671
2084.000000	5.110343
2083.000000	5.143817
2082.000000	5.132393
2081.000000	5.093669
2080.000000	4.985045
2079.000000	5.022900
2078.000000	5.099528
2077.000000	5.010093
2076.000000	5.082923
2075.000000	5.000874
2074.000000	4.958933
2073.000000	4.933921
2072.000000	5.159148
2071.000000	5.106312
2070.000000	5.048003
2069.000000	5.046745
2068.000000	5.096863
2067.000000	4.829963
2066.000000	4.974758
2065.000000	5.131001
2064.000000	5.094058
2063.000000	5.034166
2062.000000	4.952618
2061.000000	4.917201
2060.000000	5.055462
2059.000000	4.990015
2058.000000	4.992741
2057.000000	4.966865
2056.000000	5.024896
2055.000000	4.963395
2054.000000	5.005555
2053.000000	4.954788
2052.000000	5.019999
2051.000000	4.855440
2050.000000	4.929633
2049.000000	5.036210
2048.000000	5.078442
2047.000000	5.006001
2046.000000	4.987556
2045.000000	4.926160
2044.000000	5.096825
2043.000000	4.921479
2042.000000	4.968917
2041.000000	4.854470
2040.000000	4.919121
2039.000000	5.050887
2038.000000	5.027965
2037.000000	4.886381
2036.000000	4.945270
2035.000000	4.932745
2034.000000	5.045653
2033.000000	4.885677
2032.000000	4.997600
2031.000000	4.849912
2030.000000	4.997135
2029.000000	4.890768
2028.000000	5.002006
2027.000000	4.917654
2026.000000	4.936997
2025.000000	4.955065
2024.000000	4.970240
2023.000000	4.914191
2022.000000	4.992473
2021.000000	4.874637
2020.000000	4.984621
2019.000000	4.907104
2018.000000	5.015011
2017.000000	4.948069
2016.000000	4.926231
2015.000000	4.916943
2014.000000	4.956943
2013.000000	4.899203
2012.000000	5.062415
2011.000000	4.853028
2010.000000	4.962756
2009.000000	4.894323
2008.000000	4.980434
2007.000000	4.938879
2006.000000	4.948894
2005.000000	4.900834
2004.000000	4.903715
2003.000000	4.880941
2002.000000	5.035942
2001.000000	4.877419
2000.000000	4.967781
1999.000000	4.855743
1998.000000	4.956699
1997.000000	4.906593
1996.000000	4.920257
1995.000000	4.962964
1994.000000	4.912823
1993.000000	4.886263
1992.000000	4.932723
1991.000000	4.818580
1990.000000	4.931222
1989.000000	4.813304
1988.000000	4.920773
1987.000000	4.886056
1986.000000	5.003572
1985.000000	4.933471
1984.000000	4.979537
1983.000000	4.858187
1982.000000	4.900839
1981.000000	4.851682
1980.000000	4.933943
1979.000000	4.907339
1978.000000	4.818805
1977.000000	5.038251
1976.000000	4.843687
1975.000000	4.898568
1974.000000	4.809767
1973.000000	4.927525
1972.000000	4.820145
1971.000000	4.921606
1970.000000	4.869999
1969.000000	5.022214
1968.000000	4.814636
1967.000000	4.943439
1966.000000	4.906327
1965.000000	4.923031
1964.000000	4.934469
1963.000000	4.952703
1962.000000	4.823408
1961.000000	4.966886
1960.000000	4.880211
1959.000000	4.970206
1958.000000	4.853465
1957.000000	4.907462
1956.000000	4.909906
1955.000000	4.947720
1954.000000	4.825967
1953.000000	4.977827
1952.000000	4.830480
1951.000000	4.976228
1950.000000	4.852691
1949.000000	4.980521
1948.000000	4.861759
1947.000000	5.007067
1946.000000	4.881124
1945.000000	4.891192
1944.000000	4.837392
1943.000000	4.975446
1942.000000	4.870453
1941.000000	4.946690
1940.000000	4.852987
1939.000000	4.961798
1938.000000	4.905552
1937.000000	5.023457
1936.000000	4.846069
1935.000000	4.926640
1934.000000	4.946214
1933.000000	5.027739
1932.000000	4.859997
1931.000000	4.918453
1930.000000	4.896512
1929.000000	4.896095
1928.000000	4.857699
1927.000000	4.869588
1926.000000	4.825122
1925.000000	4.911646
1924.000000	4.851055
1923.000000	4.919133
1922.000000	4.808395
1921.000000	4.952811
1920.000000	4.767186
1919.000000	4.874180
1918.000000	4.875227
1917.000000	4.899622
1916.000000	4.804217
1915.000000	4.900723
1914.000000	4.778163
1913.000000	4.860879
1912.000000	4.803992
1911.000000	4.808325
1910.000000	4.791038
1909.000000	4.792920
1908.000000	4.788183
1907.000000	4.752478
1906.000000	4.827477
1905.000000	4.968374
1904.000000	4.682744
1903.000000	4.847827
1902.000000	4.729551
1901.000000	4.831344
1900.000000	4.770658
1899.000000	4.822024
1898.000000	4.774490
1897.000000	4.774836
1896.000000	4.805849
1895.000000	4.828425
1894.000000	4.816774
1893.000000	4.769077
1892.000000	4.715381
1891.000000	4.737381
1890.000000	4.738204
1889.000000	4.829673
1888.000000	4.786753
1887.000000	4.800307
1886.000000	4.751544
1885.000000	4.799841
1884.000000	4.819412
1883.000000	4.826961
1882.000000	4.763455
1881.000000	4.870408
1880.000000	4.756964
1879.000000	4.750542
1878.000000	4.741528
1877.000000	4.742788
1876.000000	4.709358
1875.000000	4.763079
1874.000000	4.729867
1873.000000	4.751827
1872.000000	4.760969
1871.000000	4.750496
1870.000000	4.708826
1869.000000	4.722614
1868.000000	4.695242
1867.000000	4.735951
1866.000000	4.722553
1865.000000	4.737461
1864.000000	4.697971
1863.000000	4.723649
1862.000000	4.752447
1861.000000	4.746595
1860.000000	4.724307
1859.000000	4.739064
1858.000000	4.702196
1857.000000	4.703460
1856.000000	4.701081
1855.000000	4.734306
1854.000000	4.681391
1853.000000	4.672913
1852.000000	4.699877
1851.000000	4.706570
1850.000000	4.748667
1849.000000	4.757997
1848.000000	4.714664
1847.000000	4.691213
1846.000000	4.678129
1845.000000	4.647777
1844.000000	4.672462
1843.000000	4.694190
1842.000000	4.672018
1841.000000	4.674493
1840.000000	4.667178
1839.000000	4.652047
1838.000000	4.667737
1837.000000	4.643510
1836.000000	4.639329
1835.000000	4.651457
1834.000000	4.641367
1833.000000	4.641565
1832.000000	4.677059
1831.000000	4.649950
1830.000000	4.639067
1829.000000	4.614492
1828.000000	4.641969
1827.000000	4.596877
1826.000000	4.609896
1825.000000	4.686233
1824.000000	4.663349
1823.000000	4.637077
1822.000000	4.650516
1821.000000	4.617906
1820.000000	4.623331
1819.000000	4.653107
1818.000000	4.648561
1817.000000	4.628563
1816.000000	4.641408
1815.000000	4.610898
1814.000000	4.619105
1813.000000	4.586276
1812.000000	4.616439
1811.000000	4.620410
1810.000000	4.633085
1809.000000	4.593012
1808.000000	4.626238
1807.000000	4.593803
1806.000000	4.600601
1805.000000	4.571563
1804.000000	4.603969
1803.000000	4.582161
1802.000000	4.593865
1801.000000	4.571337
1800.000000	4.631034
1799.000000	4.571306
1798.000000	4.604862
1797.000000	4.573594
1796.000000	4.621827
1795.000000	4.557449
1794.000000	4.611445
1793.000000	4.587728
1792.000000	4.612021
1791.000000	4.591527
1790.000000	4.631680
1789.000000	4.598613
1788.000000	4.631555
1787.000000	4.576305
1786.000000	4.621877
1785.000000	4.556570
1784.000000	4.596133
1783.000000	4.588078
1782.000000	4.599093
1781.000000	4.563738
1780.000000	4.601768
1779.000000	4.556294
1778.000000	4.623698
1777.000000	4.538894
1776.000000	4.629827
1775.000000	4.577265
1774.000000	4.580323
1773.000000	4.512398
1772.000000	4.576715
1771.000000	4.551546
1770.000000	4.575146
1769.000000	4.554777
1768.000000	4.600173
1767.000000	4.493417
1766.000000	4.586028
1765.000000	4.539386
1764.000000	4.534035
1763.000000	4.545341
1762.000000	4.570312
1761.000000	4.505965
1760.000000	4.534412
1759.000000	4.478287
1758.000000	4.545908
1757.000000	4.495323
1756.000000	4.587761
1755.000000	4.483275
1754.000000	4.527050
1753.000000	4.492129
1752.000000	4.555430
1751.000000	4.473110
1750.000000	4.533790
1749.000000	4.473060
1748.000000	4.506752
1747.000000	4.442306
1746.000000	4.519500
1745.000000	4.472385
1744.000000	4.577018
1743.000000	4.435139
1742.000000	4.528993
1741.000000	4.445767
1740.000000	4.539585
1739.000000	4.495217
1738.000000	4.498993
1737.000000	4.491770
1736.000000	4.489775
1735.000000	4.416660
1734.000000	4.515823
1733.000000	4.423202
1732.000000	4.537083
1731.000000	4.403265
1730.000000	4.521320
1729.000000	4.417039
1728.000000	4.484064
1727.000000	4.423151
1726.000000	4.507364
1725.000000	4.418521
1724.000000	4.509354
1723.000000	4.452013
1722.000000	4.501224
1721.000000	4.425177
1720.000000	4.443776
1719.000000	4.360891
1718.000000	4.509256
1717.000000	4.413949
1716.000000	4.481024
1715.000000	4.387394
1714.000000	4.448192
1713.000000	4.414290
1712.000000	4.430252
1711.000000	4.386857
1710.000000	4.430086
1709.000000	4.443512
1708.000000	4.404669
1707.000000	4.364703
1706.000000	4.443250
1705.000000	4.429236
1704.000000	4.427933
1703.000000	4.376380
1702.000000	4.414543
1701.000000	4.391848
1700.000000	4.406698
1699.000000	4.329933
1698.000000	4.395088
1697.000000	4.369356
1696.000000	4.419259
1695.000000	4.363927
1694.000000	4.396566
1693.000000	4.276207
1692.000000	4.392786
1691.000000	4.374830
1690.000000	4.411361
1689.000000	4.375335
1688.000000	4.390541
1687.000000	4.334997
1686.000000	4.374727
1685.000000	4.328872
1684.000000	4.361296
1683.000000	4.332345
1682.000000	4.365144
1681.000000	4.322428
1680.000000	4.387034
1679.000000	4.312014
1678.000000	4.366146
1677.000000	4.311616
1676.000000	4.357152
1675.000000	4.326383
1674.000000	4.378767
1673.000000	4.290348
1672.000000	4.349738
1671.000000	4.306383
1670.000000	4.327568
1669.000000	4.315759
1668.000000	4.321382
1667.000000	4.279110
1666.000000	4.345987
1665.000000	4.296564
1664.000000	4.316153
1663.000000	4.300952
1662.000000	4.318032
1661.000000	4.280622
1660.000000	4.291116
1659.000000	4.295505
1658.000000	4.296315
1657.000000	4.285069
1656.000000	4.300635
1655.000000	4.279566
1654.000000	4.285064
1653.000000	4.261242
1652.000000	4.286996
1651.000000	4.252010
1650.000000	4.252157
1649.000000	4.259308
1648.000000	4.291176
1647.000000	4.229416
1646.000000	4.251274
1645.000000	4.252793
1644.000000	4.271034
1643.000000	4.240657
1642.000000	4.236888
1641.000000	4.242920
1640.000000	4.264548
1639.000000	4.215824
1638.000000	4.249557
1637.000000	4.234319
1636.000000	4.233139
1635.000000	4.219506
1634.000000	4.252095
1633.000000	4.241307
1632.000000	4.214557
1631.000000	4.193926
1630.000000	4.245839
1629.000000	4.224618
1628.000000	4.229102
1627.000000	4.217667
1626.000000	4.220764
1625.000000	4.214074
1624.000000	4.219988
1623.000000	4.190598
