PE UV       SUBTECH     SPECTRUM    ASCII       PEDS        4.00        
   -1
Sample721.Sample.asc
11/12/22
12:37:56.00
11/12/22
12:37:56.00
Analyst
177 Sol Pluronic
300.000000
1
Lambda 950
950N6032301
PerkinElmer UV WinLab 5.1.5.0637 / 1.61.00 Lambda 900

0
0
3350/servo 860.8/2
0
0
UV/VIS
1
1
1
RBeamAtt,SBeamAtt,150mm sphere / downward view
0
0
0
0
Program
Program
3350/servo 860.8/2
3350/1 860.8/1
3350/1 860.8/1
0
1
 
 
 
0
 
860.8
319.2
860.8
Front
100
 
S:100 R:100
 
0
0
0
 
0
 
 
 
0
 
 
0
0
0
0
0
 
 
 
 
0
0
#HDR
-1
-1
#GR
nm
%T
1.0
0.0
2500.000000
-1.000000
2201
8
97.277016
38.049050
#DATA
2500.000000	84.750487
2499.000000	82.338094
2498.000000	81.844904
2497.000000	83.229730
2496.000000	83.354928
2495.000000	83.496572
2494.000000	82.944631
2493.000000	83.407645
2492.000000	83.731564
2491.000000	84.171572
2490.000000	83.424192
2489.000000	83.408668
2488.000000	83.730679
2487.000000	83.952800
2486.000000	82.926339
2485.000000	83.417367
2484.000000	83.966480
2483.000000	83.307518
2482.000000	84.136641
2481.000000	84.083606
2480.000000	83.741574
2479.000000	83.575069
2478.000000	83.844830
2477.000000	83.929579
2476.000000	84.769049
2475.000000	84.642855
2474.000000	84.170894
2473.000000	83.963871
2472.000000	83.642470
2471.000000	83.760253
2470.000000	83.761685
2469.000000	84.178828
2468.000000	84.557020
2467.000000	84.681145
2466.000000	84.268035
2465.000000	84.879991
2464.000000	84.256940
2463.000000	84.693309
2462.000000	84.367262
2461.000000	84.656080
2460.000000	84.041403
2459.000000	84.259443
2458.000000	84.419530
2457.000000	84.911407
2456.000000	84.911649
2455.000000	84.873529
2454.000000	84.421498
2453.000000	84.858722
2452.000000	84.945071
2451.000000	84.884161
2450.000000	84.171104
2449.000000	84.475763
2448.000000	84.142411
2447.000000	84.144475
2446.000000	85.361095
2445.000000	85.412702
2444.000000	85.015799
2443.000000	85.249766
2442.000000	84.587997
2441.000000	84.718944
2440.000000	85.125994
2439.000000	84.962111
2438.000000	84.306643
2437.000000	85.365517
2436.000000	84.941575
2435.000000	85.073992
2434.000000	85.105411
2433.000000	84.618123
2432.000000	85.040847
2431.000000	85.399128
2430.000000	84.704519
2429.000000	84.986280
2428.000000	85.165600
2427.000000	85.012111
2426.000000	85.250362
2425.000000	85.308859
2424.000000	85.201178
2423.000000	85.462080
2422.000000	85.248419
2421.000000	85.045458
2420.000000	84.785626
2419.000000	84.742369
2418.000000	84.751085
2417.000000	85.106882
2416.000000	85.030970
2415.000000	84.986873
2414.000000	85.329289
2413.000000	85.364974
2412.000000	85.361778
2411.000000	85.358185
2410.000000	85.289847
2409.000000	85.674591
2408.000000	84.919099
2407.000000	85.050988
2406.000000	85.439327
2405.000000	85.551604
2404.000000	84.935260
2403.000000	85.293335
2402.000000	85.330504
2401.000000	85.170736
2400.000000	85.532192
2399.000000	86.058594
2398.000000	86.034059
2397.000000	85.836655
2396.000000	85.842238
2395.000000	85.419394
2394.000000	85.409520
2393.000000	86.209418
2392.000000	86.690877
2391.000000	86.204953
2390.000000	86.053126
2389.000000	86.453738
2388.000000	86.631853
2387.000000	86.557953
2386.000000	86.866407
2385.000000	87.065708
2384.000000	86.440791
2383.000000	86.686741
2382.000000	86.888501
2381.000000	86.899475
2380.000000	87.267133
2379.000000	87.268153
2378.000000	87.193832
2377.000000	87.422721
2376.000000	87.721753
2375.000000	87.990626
2374.000000	87.601794
2373.000000	87.917022
2372.000000	88.479190
2371.000000	88.010366
2370.000000	87.855439
2369.000000	88.221421
2368.000000	88.324384
2367.000000	88.238571
2366.000000	88.574552
2365.000000	88.823970
2364.000000	88.647959
2363.000000	88.576983
2362.000000	88.570703
2361.000000	88.819182
2360.000000	89.122151
2359.000000	89.037904
2358.000000	88.875181
2357.000000	89.328135
2356.000000	89.478645
2355.000000	89.204677
2354.000000	89.436476
2353.000000	89.488620
2352.000000	89.188574
2351.000000	89.163668
2350.000000	89.352018
2349.000000	89.792298
2348.000000	90.055403
2347.000000	89.852049
2346.000000	89.547955
2345.000000	89.738560
2344.000000	89.847166
2343.000000	89.626032
2342.000000	89.729233
2341.000000	90.143668
2340.000000	90.146268
2339.000000	90.127305
2338.000000	90.083840
2337.000000	89.926315
2336.000000	90.080154
2335.000000	90.186579
2334.000000	90.091162
2333.000000	89.850989
2332.000000	89.954404
2331.000000	90.456577
2330.000000	90.413152
2329.000000	90.101959
2328.000000	90.137612
2327.000000	90.114458
2326.000000	90.217586
2325.000000	90.356101
2324.000000	90.084233
2323.000000	90.168899
2322.000000	90.212879
2321.000000	90.217665
2320.000000	90.004441
2319.000000	90.095760
2318.000000	90.429760
2317.000000	90.423938
2316.000000	90.389726
2315.000000	90.358087
2314.000000	90.118720
2313.000000	90.085830
2312.000000	90.216377
2311.000000	90.345940
2310.000000	90.551065
2309.000000	90.469415
2308.000000	90.257646
2307.000000	90.217064
2306.000000	90.362130
2305.000000	90.464028
2304.000000	90.400214
2303.000000	90.263458
2302.000000	90.539527
2301.000000	90.366696
2300.000000	90.283265
2299.000000	90.329906
2298.000000	90.397649
2297.000000	90.062183
2296.000000	90.267007
2295.000000	90.172426
2294.000000	90.249435
2293.000000	90.284552
2292.000000	90.096835
2291.000000	90.109519
2290.000000	90.263491
2289.000000	90.209170
2288.000000	90.257070
2287.000000	90.426283
2286.000000	90.222120
2285.000000	90.017820
2284.000000	90.304261
2283.000000	90.317957
2282.000000	90.155495
2281.000000	90.121664
2280.000000	90.013417
2279.000000	90.025053
2278.000000	90.255437
2277.000000	90.054390
2276.000000	90.166311
2275.000000	90.225785
2274.000000	90.274817
2273.000000	89.774291
2272.000000	89.696687
2271.000000	89.813301
2270.000000	89.862828
2269.000000	89.654036
2268.000000	89.638632
2267.000000	89.617183
2266.000000	90.110403
2265.000000	89.569208
2264.000000	89.555162
2263.000000	89.687990
2262.000000	89.840067
2261.000000	89.544636
2260.000000	89.761279
2259.000000	89.538357
2258.000000	89.558080
2257.000000	89.653572
2256.000000	89.447522
2255.000000	89.654442
2254.000000	89.397142
2253.000000	89.498809
2252.000000	89.672098
2251.000000	89.268751
2250.000000	89.693507
2249.000000	89.282061
2248.000000	89.155569
2247.000000	89.636900
2246.000000	89.472592
2245.000000	89.240235
2244.000000	89.360657
2243.000000	89.252606
2242.000000	89.101860
2241.000000	89.313025
2240.000000	89.186225
2239.000000	89.061524
2238.000000	88.912598
2237.000000	88.913362
2236.000000	88.671522
2235.000000	88.577049
2234.000000	88.996156
2233.000000	88.555727
2232.000000	88.515104
2231.000000	88.637737
2230.000000	88.416429
2229.000000	88.481505
2228.000000	88.662680
2227.000000	88.316514
2226.000000	88.234716
2225.000000	88.495626
2224.000000	88.240489
2223.000000	88.109694
2222.000000	88.196263
2221.000000	88.325372
2220.000000	88.292627
2219.000000	88.151520
2218.000000	87.835519
2217.000000	88.156789
2216.000000	88.301597
2215.000000	88.244685
2214.000000	88.337609
2213.000000	88.212453
2212.000000	88.193693
2211.000000	88.169083
2210.000000	88.115750
2209.000000	88.318532
2208.000000	88.404168
2207.000000	88.409334
2206.000000	88.573919
2205.000000	88.582830
2204.000000	88.549514
2203.000000	88.605665
2202.000000	88.965441
2201.000000	88.881313
2200.000000	89.043616
2199.000000	88.791965
2198.000000	89.152079
2197.000000	89.073325
2196.000000	89.448597
2195.000000	89.384379
2194.000000	89.380718
2193.000000	89.265587
2192.000000	89.580353
2191.000000	89.652897
2190.000000	89.746723
2189.000000	89.588268
2188.000000	89.601987
2187.000000	89.737447
2186.000000	89.844963
2185.000000	90.052555
2184.000000	90.219749
2183.000000	90.257088
2182.000000	90.072348
2181.000000	90.136777
2180.000000	90.105970
2179.000000	90.316952
2178.000000	90.262211
2177.000000	90.153630
2176.000000	90.319966
2175.000000	90.427708
2174.000000	90.462612
2173.000000	90.632065
2172.000000	90.569334
2171.000000	90.563666
2170.000000	90.296775
2169.000000	90.442430
2168.000000	90.391240
2167.000000	90.566989
2166.000000	90.745256
2165.000000	90.794135
2164.000000	90.822211
2163.000000	90.708949
2162.000000	90.804384
2161.000000	90.725255
2160.000000	90.680376
2159.000000	90.842426
2158.000000	90.707511
2157.000000	90.629008
2156.000000	90.746394
2155.000000	90.858400
2154.000000	90.768235
2153.000000	90.923350
2152.000000	91.011310
2151.000000	90.878917
2150.000000	90.953263
2149.000000	91.085275
2148.000000	91.040969
2147.000000	91.136991
2146.000000	90.936141
2145.000000	91.054330
2144.000000	91.224079
2143.000000	91.354037
2142.000000	91.458599
2141.000000	91.630038
2140.000000	91.493474
2139.000000	91.397775
2138.000000	91.542955
2137.000000	91.603986
2136.000000	91.718166
2135.000000	91.933389
2134.000000	91.938287
2133.000000	92.047235
2132.000000	92.001904
2131.000000	91.993162
2130.000000	92.010989
2129.000000	92.061180
2128.000000	92.071926
2127.000000	91.977399
2126.000000	92.182859
2125.000000	92.325927
2124.000000	92.202311
2123.000000	92.306721
2122.000000	92.436483
2121.000000	92.354863
2120.000000	92.399149
2119.000000	92.490606
2118.000000	92.418179
2117.000000	92.462857
2116.000000	92.592860
2115.000000	92.624606
2114.000000	92.649275
2113.000000	92.795241
2112.000000	92.996302
2111.000000	93.052898
2110.000000	93.097862
2109.000000	93.191282
2108.000000	93.258127
2107.000000	93.227813
2106.000000	93.182353
2105.000000	93.150372
2104.000000	93.255923
2103.000000	93.289616
2102.000000	93.335365
2101.000000	93.387730
2100.000000	93.400716
2099.000000	93.455161
2098.000000	93.477403
2097.000000	93.621736
2096.000000	93.738642
2095.000000	93.571378
2094.000000	93.543203
2093.000000	93.603793
2092.000000	93.517819
2091.000000	93.518685
2090.000000	93.640618
2089.000000	93.606585
2088.000000	93.533388
2087.000000	93.538547
2086.000000	93.690306
2085.000000	93.724677
2084.000000	93.762209
2083.000000	93.821018
2082.000000	93.753470
2081.000000	93.763318
2080.000000	93.804505
2079.000000	93.781573
2078.000000	93.621689
2077.000000	93.688064
2076.000000	93.836783
2075.000000	93.762733
2074.000000	93.801634
2073.000000	93.833949
2072.000000	93.696853
2071.000000	93.727944
2070.000000	93.840722
2069.000000	93.897421
2068.000000	93.846005
2067.000000	93.885548
2066.000000	93.881036
2065.000000	93.858022
2064.000000	93.834638
2063.000000	93.881629
2062.000000	94.001152
2061.000000	93.891451
2060.000000	93.806815
2059.000000	93.948757
2058.000000	94.052572
2057.000000	94.077854
2056.000000	94.134699
2055.000000	94.062617
2054.000000	94.145260
2053.000000	94.116014
2052.000000	94.055772
2051.000000	94.169968
2050.000000	94.005393
2049.000000	93.929989
2048.000000	93.970650
2047.000000	94.001088
2046.000000	93.882801
2045.000000	93.917283
2044.000000	93.963870
2043.000000	93.874575
2042.000000	93.955148
2041.000000	93.959864
2040.000000	94.005999
2039.000000	93.898339
2038.000000	93.918885
2037.000000	94.016829
2036.000000	94.026001
2035.000000	93.984634
2034.000000	93.959131
2033.000000	94.009771
2032.000000	93.941679
2031.000000	93.890041
2030.000000	94.063730
2029.000000	93.954299
2028.000000	93.971828
2027.000000	93.994372
2026.000000	94.053047
2025.000000	94.032353
2024.000000	94.063746
2023.000000	93.898830
2022.000000	93.966256
2021.000000	93.956907
2020.000000	93.983190
2019.000000	93.939789
2018.000000	93.930381
2017.000000	93.991683
2016.000000	93.980985
2015.000000	93.962434
2014.000000	93.971264
2013.000000	93.958937
2012.000000	93.983169
2011.000000	93.987898
2010.000000	93.913459
2009.000000	93.908205
2008.000000	93.903205
2007.000000	93.906386
2006.000000	93.940777
2005.000000	93.966212
2004.000000	94.004142
2003.000000	93.985988
2002.000000	93.982705
2001.000000	94.040086
2000.000000	94.064096
1999.000000	94.093426
1998.000000	93.992985
1997.000000	94.061508
1996.000000	93.929235
1995.000000	93.981286
1994.000000	94.011275
1993.000000	94.041584
1992.000000	94.071657
1991.000000	94.147147
1990.000000	94.101931
1989.000000	94.000045
1988.000000	94.092146
1987.000000	94.081829
1986.000000	94.123708
1985.000000	94.130623
1984.000000	94.141330
1983.000000	94.146300
1982.000000	94.138373
1981.000000	94.211384
1980.000000	94.122042
1979.000000	94.113191
1978.000000	94.205793
1977.000000	94.186826
1976.000000	94.244406
1975.000000	94.249068
1974.000000	94.266701
1973.000000	94.370777
1972.000000	94.248355
1971.000000	94.305122
1970.000000	94.372371
1969.000000	94.313947
1968.000000	94.449643
1967.000000	94.406688
1966.000000	94.398786
1965.000000	94.472911
1964.000000	94.492166
1963.000000	94.419477
1962.000000	94.511085
1961.000000	94.510789
1960.000000	94.527478
1959.000000	94.458937
1958.000000	94.507042
1957.000000	94.532392
1956.000000	94.602387
1955.000000	94.663016
1954.000000	94.578921
1953.000000	94.564357
1952.000000	94.632302
1951.000000	94.612700
1950.000000	94.684187
1949.000000	94.658259
1948.000000	94.701657
1947.000000	94.676615
1946.000000	94.756223
1945.000000	94.681265
1944.000000	94.708501
1943.000000	94.701617
1942.000000	94.774235
1941.000000	94.694907
1940.000000	94.750568
1939.000000	94.721994
1938.000000	94.736245
1937.000000	94.802480
1936.000000	94.816211
1935.000000	94.837642
1934.000000	94.832476
1933.000000	94.778786
1932.000000	94.793634
1931.000000	94.804856
1930.000000	94.765676
1929.000000	94.847215
1928.000000	94.806714
1927.000000	94.717524
1926.000000	94.771729
1925.000000	94.863330
1924.000000	94.843219
1923.000000	94.910304
1922.000000	94.861870
1921.000000	94.917001
1920.000000	94.835085
1919.000000	94.911757
1918.000000	94.964848
1917.000000	94.866494
1916.000000	94.941970
1915.000000	94.888622
1914.000000	94.927917
1913.000000	94.856416
1912.000000	94.847897
1911.000000	94.884927
1910.000000	94.859294
1909.000000	94.839460
1908.000000	94.896143
1907.000000	94.914148
1906.000000	94.876827
1905.000000	94.981896
1904.000000	94.951571
1903.000000	94.951847
1902.000000	94.902686
1901.000000	94.926880
1900.000000	95.002285
1899.000000	94.981801
1898.000000	94.907653
1897.000000	94.883771
1896.000000	94.937862
1895.000000	94.948330
1894.000000	94.997313
1893.000000	95.037747
1892.000000	95.013625
1891.000000	94.970592
1890.000000	94.964036
1889.000000	94.951149
1888.000000	94.976733
1887.000000	95.041686
1886.000000	95.017566
1885.000000	94.988263
1884.000000	94.997237
1883.000000	94.963763
1882.000000	95.002621
1881.000000	94.978650
1880.000000	95.008549
1879.000000	94.990002
1878.000000	94.939465
1877.000000	95.028950
1876.000000	95.106374
1875.000000	94.998860
1874.000000	94.940864
1873.000000	94.986134
1872.000000	95.030003
1871.000000	95.026168
1870.000000	95.025359
1869.000000	95.046116
1868.000000	95.034627
1867.000000	95.017569
1866.000000	95.065236
1865.000000	95.080024
1864.000000	95.100366
1863.000000	95.119930
1862.000000	95.112372
1861.000000	95.181489
1860.000000	95.193767
1859.000000	95.156551
1858.000000	95.155930
1857.000000	95.175702
1856.000000	95.100681
1855.000000	95.030323
1854.000000	95.068790
1853.000000	95.066782
1852.000000	95.117852
1851.000000	95.212828
1850.000000	95.254508
1849.000000	95.218721
1848.000000	95.123796
1847.000000	95.095949
1846.000000	95.047955
1845.000000	95.039614
1844.000000	95.071259
1843.000000	95.059800
1842.000000	95.088718
1841.000000	95.114962
1840.000000	95.106980
1839.000000	95.115020
1838.000000	95.159819
1837.000000	95.169025
1836.000000	95.097517
1835.000000	95.063213
1834.000000	95.077255
1833.000000	95.093699
1832.000000	95.116469
1831.000000	95.159188
1830.000000	95.144718
1829.000000	95.114149
1828.000000	95.129373
1827.000000	95.143098
1826.000000	95.170950
1825.000000	95.168906
1824.000000	95.150681
1823.000000	95.157758
1822.000000	95.148976
1821.000000	95.143291
1820.000000	95.159904
1819.000000	95.171418
1818.000000	95.168671
1817.000000	95.171256
1816.000000	95.179355
1815.000000	95.186124
1814.000000	95.168788
1813.000000	95.149519
1812.000000	95.189685
1811.000000	95.202877
1810.000000	95.199728
1809.000000	95.206433
1808.000000	95.170284
1807.000000	95.178411
1806.000000	95.202304
1805.000000	95.177698
1804.000000	95.159319
1803.000000	95.163310
1802.000000	95.175826
1801.000000	95.188053
1800.000000	95.237446
1799.000000	95.260078
1798.000000	95.201598
1797.000000	95.206282
1796.000000	95.219839
1795.000000	95.247979
1794.000000	95.243104
1793.000000	95.237253
1792.000000	95.257926
1791.000000	95.245199
1790.000000	95.247207
1789.000000	95.218384
1788.000000	95.228566
1787.000000	95.257418
1786.000000	95.259758
1785.000000	95.219436
1784.000000	95.234458
1783.000000	95.227883
1782.000000	95.254570
1781.000000	95.219896
1780.000000	95.237340
1779.000000	95.257849
1778.000000	95.258840
1777.000000	95.294344
1776.000000	95.282200
1775.000000	95.226453
1774.000000	95.261116
1773.000000	95.284723
1772.000000	95.260289
1771.000000	95.293107
1770.000000	95.310117
1769.000000	95.307035
1768.000000	95.312222
1767.000000	95.288237
1766.000000	95.275890
1765.000000	95.307518
1764.000000	95.286490
1763.000000	95.302749
1762.000000	95.231172
1761.000000	95.294400
1760.000000	95.282462
1759.000000	95.293334
1758.000000	95.314721
1757.000000	95.317371
1756.000000	95.314913
1755.000000	95.320902
1754.000000	95.285382
1753.000000	95.353435
1752.000000	95.310093
1751.000000	95.315247
1750.000000	95.333750
1749.000000	95.351062
1748.000000	95.301827
1747.000000	95.327340
1746.000000	95.371118
1745.000000	95.345881
1744.000000	95.309163
1743.000000	95.375454
1742.000000	95.360838
1741.000000	95.323419
1740.000000	95.309865
1739.000000	95.361195
1738.000000	95.313774
1737.000000	95.379257
1736.000000	95.363838
1735.000000	95.361001
1734.000000	95.342811
1733.000000	95.345395
1732.000000	95.383410
1731.000000	95.393329
1730.000000	95.387868
1729.000000	95.424091
1728.000000	95.365397
1727.000000	95.425778
1726.000000	95.382593
1725.000000	95.409648
1724.000000	95.363461
1723.000000	95.385623
1722.000000	95.422896
1721.000000	95.411891
1720.000000	95.375087
1719.000000	95.351167
1718.000000	95.448756
1717.000000	95.413129
1716.000000	95.386828
1715.000000	95.355847
1714.000000	95.429883
1713.000000	95.431935
1712.000000	95.433943
1711.000000	95.389817
1710.000000	95.401414
1709.000000	95.408283
1708.000000	95.429095
1707.000000	95.430618
1706.000000	95.413165
1705.000000	95.411030
1704.000000	95.450185
1703.000000	95.472942
1702.000000	95.476877
1701.000000	95.443948
1700.000000	95.480536
1699.000000	95.437234
1698.000000	95.450758
1697.000000	95.495746
1696.000000	95.449691
1695.000000	95.447603
1694.000000	95.442624
1693.000000	95.444829
1692.000000	95.431276
1691.000000	95.481060
1690.000000	95.465828
1689.000000	95.464114
1688.000000	95.505171
1687.000000	95.458138
1686.000000	95.491287
1685.000000	95.497478
1684.000000	95.457040
1683.000000	95.485485
1682.000000	95.476884
1681.000000	95.487106
1680.000000	95.509488
1679.000000	95.500703
1678.000000	95.510250
1677.000000	95.524375
1676.000000	95.503911
1675.000000	95.503991
1674.000000	95.506817
1673.000000	95.505648
1672.000000	95.533450
1671.000000	95.548449
1670.000000	95.547092
1669.000000	95.758285
1668.000000	95.735014
1667.000000	95.664886
1666.000000	95.499693
1665.000000	95.516118
1664.000000	95.519231
1663.000000	95.546157
1662.000000	95.523748
