PE UV       SUBTECH     SPECTRUM    ASCII       PEDS        4.00        
   -1
Sample64.Sample.asc
22/07/20
11:01:39.00
22/07/20
11:01:39.00
user
Th sub 2mm MC Ferrara
200.000000
1
Lambda 950
950L1311251
PerkinElmer UV WinLab 7.1.0.68 / 2.02.11 Lambda 900 UV/VIS/NIR, May 23 2018 11:23:04

0
0
3350/servo 860.8/2
0
0
UV/VIS
1
1
1
RBeamAtt,SBeamAtt,multi purpose optical bench
0
0
0
0
Program
Program
3350/servo 860.8/2
3350/1 860.8/1
3350/1 860.8/1
0
4
 
 
 
0
 
860.8
319.2
860.8
Front
100
 
S:100 R:100
 
0
0
0
 
0
 
 
 
0
 
 
0
0
0
0
0
 
 
 
 
0
0


0
0
#HDR
-1
-1
#GR
nm
%T
1.0
0.0
2500.000000
-2.000000
1151
8
94.006659
83.803582
#DATA
2500.000000	89.736868
2498.000000	88.232857
2496.000000	89.996972
2494.000000	89.744427
2492.000000	88.216443
2490.000000	90.395629
2488.000000	90.323743
2486.000000	90.564246
2484.000000	89.534427
2482.000000	90.980505
2480.000000	89.730478
2478.000000	91.470391
2476.000000	89.277995
2474.000000	90.227985
2472.000000	89.970974
2470.000000	90.194916
2468.000000	90.171373
2466.000000	91.176184
2464.000000	91.342258
2462.000000	91.238318
2460.000000	90.128498
2458.000000	89.969576
2456.000000	90.377201
2454.000000	91.145172
2452.000000	91.109252
2450.000000	90.872633
2448.000000	91.300130
2446.000000	91.825099
2444.000000	90.703758
2442.000000	91.567884
2440.000000	91.544841
2438.000000	91.273029
2436.000000	91.800944
2434.000000	91.917255
2432.000000	92.039508
2430.000000	91.801537
2428.000000	91.607743
2426.000000	92.654624
2424.000000	92.635150
2422.000000	92.268540
2420.000000	91.828326
2418.000000	92.437800
2416.000000	92.484329
2414.000000	92.017612
2412.000000	91.823501
2410.000000	92.253652
2408.000000	92.407670
2406.000000	92.026996
2404.000000	91.755701
2402.000000	91.997198
2400.000000	92.138377
2398.000000	93.241339
2396.000000	92.886706
2394.000000	92.642315
2392.000000	92.526080
2390.000000	92.256952
2388.000000	92.543444
2386.000000	92.052057
2384.000000	91.672337
2382.000000	91.782180
2380.000000	92.633081
2378.000000	92.796439
2376.000000	92.695681
2374.000000	92.438996
2372.000000	92.483946
2370.000000	92.706937
2368.000000	93.228764
2366.000000	93.085706
2364.000000	92.824017
2362.000000	92.405697
2360.000000	92.303156
2358.000000	92.555316
2356.000000	92.823591
2354.000000	92.428145
2352.000000	92.329062
2350.000000	92.725817
2348.000000	93.005003
2346.000000	92.181572
2344.000000	92.441235
2342.000000	92.291021
2340.000000	92.154380
2338.000000	92.373413
2336.000000	92.812100
2334.000000	92.735816
2332.000000	91.950140
2330.000000	92.002403
2328.000000	92.284363
2326.000000	92.279248
2324.000000	92.325073
2322.000000	92.026733
2320.000000	91.681102
2318.000000	91.430163
2316.000000	91.753752
2314.000000	91.957481
2312.000000	91.692628
2310.000000	91.603245
2308.000000	91.888053
2306.000000	91.870143
2304.000000	91.402493
2302.000000	91.367354
2300.000000	91.053447
2298.000000	90.912453
2296.000000	90.595322
2294.000000	90.559218
2292.000000	90.575104
2290.000000	90.261151
2288.000000	90.121024
2286.000000	89.922912
2284.000000	89.741608
2282.000000	89.663974
2280.000000	89.224670
2278.000000	89.141512
2276.000000	89.069455
2274.000000	88.664926
2272.000000	88.450195
2270.000000	88.125126
2268.000000	87.951639
2266.000000	88.109897
2264.000000	87.926564
2262.000000	87.757141
2260.000000	87.203956
2258.000000	86.949978
2256.000000	86.964627
2254.000000	86.947082
2252.000000	86.688083
2250.000000	86.326086
2248.000000	86.092439
2246.000000	86.035706
2244.000000	86.110113
2242.000000	86.102860
2240.000000	85.791783
2238.000000	85.740007
2236.000000	85.807813
2234.000000	85.679120
2232.000000	85.296607
2230.000000	85.258674
2228.000000	84.962644
2226.000000	84.673784
2224.000000	84.365621
2222.000000	84.055348
2220.000000	84.200402
2218.000000	83.899328
2216.000000	83.854506
2214.000000	83.803582
2212.000000	84.087244
2210.000000	84.232803
2208.000000	84.506892
2206.000000	84.762781
2204.000000	85.353192
2202.000000	86.298860
2200.000000	86.960700
2198.000000	87.405476
2196.000000	88.027018
2194.000000	88.671941
2192.000000	89.706223
2190.000000	90.121725
2188.000000	90.611239
2186.000000	90.780645
2184.000000	90.963538
2182.000000	91.504307
2180.000000	91.485367
2178.000000	91.876654
2176.000000	91.663423
2174.000000	91.666263
2172.000000	91.986957
2170.000000	92.336341
2168.000000	92.493302
2166.000000	92.358407
2164.000000	92.540572
2162.000000	92.448929
2160.000000	92.459653
2158.000000	92.374218
2156.000000	92.589575
2154.000000	93.078146
2152.000000	92.413497
2150.000000	92.995137
2148.000000	93.255367
2146.000000	92.992229
2144.000000	92.989184
2142.000000	92.819766
2140.000000	93.018701
2138.000000	93.440496
2136.000000	92.801151
2134.000000	93.574508
2132.000000	93.005782
2130.000000	93.430796
2128.000000	93.395558
2126.000000	93.112400
2124.000000	93.084104
2122.000000	93.108257
2120.000000	93.307838
2118.000000	93.431448
2116.000000	93.242035
2114.000000	93.129135
2112.000000	93.622122
2110.000000	93.266157
2108.000000	93.533227
2106.000000	93.457411
2104.000000	93.276490
2102.000000	93.287688
2100.000000	93.224075
2098.000000	93.377305
2096.000000	93.506389
2094.000000	93.402379
2092.000000	93.579648
2090.000000	93.332893
2088.000000	93.570773
2086.000000	93.587914
2084.000000	93.555149
2082.000000	93.467273
2080.000000	93.406161
2078.000000	93.330502
2076.000000	93.564656
2074.000000	93.440535
2072.000000	93.377839
2070.000000	93.220778
2068.000000	93.226587
2066.000000	93.368915
2064.000000	93.321607
2062.000000	93.435303
2060.000000	93.349979
2058.000000	93.324719
2056.000000	93.439987
2054.000000	93.574334
2052.000000	93.462186
2050.000000	93.321647
2048.000000	93.472247
2046.000000	93.591730
2044.000000	93.548764
2042.000000	93.482173
2040.000000	93.594455
2038.000000	93.540981
2036.000000	93.438842
2034.000000	93.543163
2032.000000	93.554882
2030.000000	93.511288
2028.000000	93.622641
2026.000000	93.562394
2024.000000	93.524838
2022.000000	93.567591
2020.000000	93.540231
2018.000000	93.763302
2016.000000	93.770648
2014.000000	93.644500
2012.000000	93.627850
2010.000000	93.721262
2008.000000	93.724300
2006.000000	93.625831
2004.000000	93.598324
2002.000000	93.611077
2000.000000	93.592198
1998.000000	93.731599
1996.000000	93.702343
1994.000000	93.583688
1992.000000	93.604348
1990.000000	93.649872
1988.000000	93.663322
1986.000000	93.720739
1984.000000	93.588008
1982.000000	93.454815
1980.000000	93.538772
1978.000000	93.681651
1976.000000	93.698551
1974.000000	93.757615
1972.000000	93.770618
1970.000000	93.692407
1968.000000	93.671423
1966.000000	93.636745
1964.000000	93.656431
1962.000000	93.598555
1960.000000	93.464969
1958.000000	93.480504
1956.000000	93.620474
1954.000000	93.751844
1952.000000	93.732015
1950.000000	93.556654
1948.000000	93.585827
1946.000000	93.723975
1944.000000	93.751420
1942.000000	93.656060
1940.000000	93.582477
1938.000000	93.706239
1936.000000	93.778856
1934.000000	93.713902
1932.000000	93.600644
1930.000000	93.534553
1928.000000	93.689249
1926.000000	93.789772
1924.000000	93.763487
1922.000000	93.823830
1920.000000	93.827044
1918.000000	93.633070
1916.000000	93.548820
1914.000000	93.565516
1912.000000	93.562566
1910.000000	93.671214
1908.000000	93.607193
1906.000000	93.628348
1904.000000	93.754743
1902.000000	93.720449
1900.000000	93.737370
1898.000000	93.678616
1896.000000	93.599146
1894.000000	93.573417
1892.000000	93.689245
1890.000000	93.741565
1888.000000	93.613006
1886.000000	93.729903
1884.000000	93.688921
1882.000000	93.570705
1880.000000	93.487431
1878.000000	93.680970
1876.000000	93.561621
1874.000000	93.598477
1872.000000	93.671414
1870.000000	93.619631
1868.000000	93.698820
1866.000000	93.770844
1864.000000	93.688246
1862.000000	93.616388
1860.000000	93.709955
1858.000000	93.743800
1856.000000	93.750369
1854.000000	93.679209
1852.000000	93.645462
1850.000000	93.676331
1848.000000	93.706485
1846.000000	93.561444
1844.000000	93.642834
1842.000000	93.632181
1840.000000	93.642788
1838.000000	93.722809
1836.000000	93.631417
1834.000000	93.682904
1832.000000	93.853440
1830.000000	93.774994
1828.000000	93.919548
1826.000000	93.696247
1824.000000	93.671078
1822.000000	93.507785
1820.000000	93.436942
1818.000000	93.663486
1816.000000	93.705119
1814.000000	93.852094
1812.000000	93.650765
1810.000000	93.701613
1808.000000	93.801942
1806.000000	93.653834
1804.000000	93.746832
1802.000000	93.642325
1800.000000	93.699597
1798.000000	93.486389
1796.000000	93.898757
1794.000000	93.722655
1792.000000	93.640995
1790.000000	93.699279
1788.000000	93.676239
1786.000000	93.668685
1784.000000	93.633938
1782.000000	93.444358
1780.000000	93.752149
1778.000000	93.863489
1776.000000	93.631204
1774.000000	93.748131
1772.000000	93.610889
1770.000000	93.549348
1768.000000	93.672108
1766.000000	93.695625
1764.000000	93.597449
1762.000000	93.694185
1760.000000	93.730733
1758.000000	93.811245
1756.000000	93.628614
1754.000000	93.574584
1752.000000	93.738073
1750.000000	93.628275
1748.000000	93.715616
1746.000000	94.006659
1744.000000	93.655516
1742.000000	93.705540
1740.000000	93.765195
1738.000000	93.813350
1736.000000	93.613705
1734.000000	93.793187
1732.000000	93.547546
1730.000000	93.661217
1728.000000	93.902755
1726.000000	93.873200
1724.000000	93.654831
1722.000000	93.732469
1720.000000	93.548572
1718.000000	93.766891
1716.000000	93.570592
1714.000000	93.797164
1712.000000	93.623434
1710.000000	93.629385
1708.000000	93.709480
1706.000000	93.633898
1704.000000	93.801581
1702.000000	93.743612
1700.000000	93.599996
1698.000000	93.681648
1696.000000	93.668298
1694.000000	93.707165
1692.000000	93.492686
1690.000000	93.731686
1688.000000	93.795468
1686.000000	93.646610
1684.000000	93.654015
1682.000000	93.759419
1680.000000	93.559180
1678.000000	93.501744
1676.000000	93.561259
1674.000000	93.621952
1672.000000	93.710307
1670.000000	93.875642
1668.000000	93.865099
1666.000000	93.588660
1664.000000	93.840722
1662.000000	93.579623
1660.000000	93.590334
1658.000000	93.658210
1656.000000	93.587319
1654.000000	93.620620
1652.000000	93.668158
1650.000000	93.741647
1648.000000	93.552909
1646.000000	93.607736
1644.000000	93.776399
1642.000000	93.659196
1640.000000	93.673042
1638.000000	93.668173
1636.000000	93.521704
1634.000000	93.638273
1632.000000	93.444276
1630.000000	93.478951
1628.000000	93.552566
1626.000000	93.587397
1624.000000	93.662361
1622.000000	93.600625
1620.000000	93.583520
1618.000000	93.624533
1616.000000	93.563067
1614.000000	93.537500
1612.000000	93.604009
1610.000000	93.567543
1608.000000	93.542627
1606.000000	93.478235
1604.000000	93.485967
1602.000000	93.679996
1600.000000	93.683318
1598.000000	93.623759
1596.000000	93.739195
1594.000000	93.790027
1592.000000	93.548249
1590.000000	93.650937
1588.000000	93.821142
1586.000000	93.671116
1584.000000	93.600251
1582.000000	93.581309
1580.000000	93.673166
1578.000000	93.681409
1576.000000	93.658985
1574.000000	93.524138
1572.000000	93.459848
1570.000000	93.673099
1568.000000	93.707196
1566.000000	93.575441
1564.000000	93.564857
1562.000000	93.685327
1560.000000	93.654187
1558.000000	93.542771
1556.000000	93.504243
1554.000000	93.574270
1552.000000	93.716760
1550.000000	93.658743
1548.000000	93.537954
1546.000000	93.634949
1544.000000	93.703299
1542.000000	93.615906
1540.000000	93.596302
1538.000000	93.632265
1536.000000	93.594327
1534.000000	93.548288
1532.000000	93.579226
1530.000000	93.607850
1528.000000	93.591437
1526.000000	93.658655
1524.000000	93.678151
1522.000000	93.660728
1520.000000	93.653702
1518.000000	93.642713
1516.000000	93.597097
1514.000000	93.630759
1512.000000	93.698060
1510.000000	93.586329
1508.000000	93.556608
1506.000000	93.715832
1504.000000	93.709443
1502.000000	93.520128
1500.000000	93.550406
1498.000000	93.457422
1496.000000	93.575143
1494.000000	93.624542
1492.000000	93.412244
1490.000000	93.466349
1488.000000	93.535583
1486.000000	93.528833
1484.000000	93.573816
1482.000000	93.708141
1480.000000	93.598475
1478.000000	93.600059
1476.000000	93.586216
1474.000000	93.507564
1472.000000	93.423486
1470.000000	93.641980
1468.000000	93.521617
1466.000000	93.382354
1464.000000	93.477752
1462.000000	93.424093
1460.000000	93.587085
1458.000000	93.528917
1456.000000	93.441803
1454.000000	93.482267
1452.000000	93.488854
1450.000000	93.493080
1448.000000	93.562036
1446.000000	93.345935
1444.000000	93.358197
1442.000000	93.555318
1440.000000	93.435210
1438.000000	93.559124
1436.000000	93.337917
1434.000000	93.446037
1432.000000	93.389385
1430.000000	93.358860
1428.000000	93.356167
1426.000000	93.206084
1424.000000	93.267092
1422.000000	93.094970
1420.000000	93.200455
1418.000000	93.052681
1416.000000	93.018853
1414.000000	93.131553
1412.000000	93.045781
1410.000000	92.924813
1408.000000	92.899557
1406.000000	92.601363
1404.000000	92.274179
1402.000000	92.037869
1400.000000	92.063317
1398.000000	91.806755
1396.000000	91.792678
1394.000000	91.383161
1392.000000	91.145751
1390.000000	90.983030
1388.000000	90.877735
1386.000000	90.551321
1384.000000	90.707445
1382.000000	90.570208
1380.000000	90.761810
1378.000000	91.407816
1376.000000	91.902057
1374.000000	92.307002
1372.000000	92.632657
1370.000000	92.820899
1368.000000	93.080476
1366.000000	93.143421
1364.000000	93.331681
1362.000000	93.084663
1360.000000	93.325604
1358.000000	93.228163
1356.000000	93.120214
1354.000000	93.210054
1352.000000	93.288700
1350.000000	93.411761
1348.000000	93.462196
1346.000000	93.421833
1344.000000	93.354898
1342.000000	93.257574
1340.000000	93.296849
1338.000000	93.391130
1336.000000	93.315706
1334.000000	93.328767
1332.000000	93.471597
1330.000000	93.467572
1328.000000	93.408693
1326.000000	93.604801
1324.000000	93.469615
1322.000000	93.555614
1320.000000	93.574866
1318.000000	93.436171
1316.000000	93.476562
1314.000000	93.709756
1312.000000	93.582825
1310.000000	93.531185
1308.000000	93.392817
1306.000000	93.467080
1304.000000	93.587742
1302.000000	93.440855
1300.000000	93.293144
1298.000000	93.496272
1296.000000	93.544415
1294.000000	93.418614
1292.000000	93.500953
1290.000000	93.308877
1288.000000	93.583841
1286.000000	93.446505
1284.000000	93.487535
1282.000000	93.701921
1280.000000	93.592907
1278.000000	93.511717
1276.000000	93.452915
1274.000000	93.531562
1272.000000	93.523923
1270.000000	93.470283
1268.000000	93.348824
1266.000000	93.499365
1264.000000	93.552712
1262.000000	93.554869
1260.000000	93.511979
1258.000000	93.569966
1256.000000	93.532050
1254.000000	93.308432
1252.000000	93.328094
1250.000000	93.359632
1248.000000	93.521338
1246.000000	93.397949
1244.000000	93.329157
1242.000000	93.311588
1240.000000	93.232747
1238.000000	93.335275
1236.000000	93.325809
1234.000000	93.448602
1232.000000	93.708728
1230.000000	93.517267
1228.000000	93.474116
1226.000000	93.481648
1224.000000	93.510735
1222.000000	93.645676
1220.000000	93.611151
1218.000000	93.549479
1216.000000	93.580210
1214.000000	93.476180
1212.000000	93.446605
1210.000000	93.536097
1208.000000	93.527110
1206.000000	93.526786
1204.000000	93.379916
1202.000000	93.463590
1200.000000	93.599659
1198.000000	93.574389
1196.000000	93.556758
1194.000000	93.632109
1192.000000	93.563174
1190.000000	93.408220
1188.000000	93.497242
1186.000000	93.517899
1184.000000	93.518188
1182.000000	93.517418
1180.000000	93.600883
1178.000000	93.614599
1176.000000	93.448069
1174.000000	93.435992
1172.000000	93.479082
1170.000000	93.466104
1168.000000	93.365603
1166.000000	93.379421
1164.000000	93.528982
1162.000000	93.556118
1160.000000	93.439420
1158.000000	93.457922
1156.000000	93.434228
1154.000000	93.441760
1152.000000	93.469832
1150.000000	93.270855
1148.000000	93.343767
1146.000000	93.498837
1144.000000	93.505611
1142.000000	93.315378
1140.000000	93.287917
1138.000000	93.428343
1136.000000	93.487657
1134.000000	93.563901
1132.000000	93.640085
1130.000000	93.610286
1128.000000	93.449392
1126.000000	93.418238
1124.000000	93.424712
1122.000000	93.295284
1120.000000	93.431817
1118.000000	93.446198
1116.000000	93.280795
1114.000000	93.447441
1112.000000	93.553313
1110.000000	93.527765
1108.000000	93.474553
1106.000000	93.518116
1104.000000	93.511021
1102.000000	93.430765
1100.000000	93.439765
1098.000000	93.359680
1096.000000	93.529504
1094.000000	93.487448
1092.000000	93.549615
1090.000000	93.402267
1088.000000	93.342834
1086.000000	93.447296
1084.000000	93.530220
1082.000000	93.455565
1080.000000	93.430129
1078.000000	93.439269
1076.000000	93.447211
1074.000000	93.387397
1072.000000	93.374926
1070.000000	93.578370
1068.000000	93.439202
1066.000000	93.269788
1064.000000	93.358057
1062.000000	93.280131
1060.000000	93.475028
1058.000000	93.509727
1056.000000	93.389421
1054.000000	93.497157
1052.000000	93.553028
1050.000000	93.389275
1048.000000	93.515040
1046.000000	93.518699
1044.000000	93.303213
1042.000000	93.619396
1040.000000	93.376357
1038.000000	93.444380
1036.000000	93.600858
1034.000000	93.391529
1032.000000	93.601597
1030.000000	93.482290
1028.000000	93.385172
1026.000000	93.471748
1024.000000	93.570455
1022.000000	93.622667
1020.000000	93.398941
1018.000000	93.590665
1016.000000	93.306578
1014.000000	93.450316
1012.000000	93.370161
1010.000000	93.371036
1008.000000	93.217902
1006.000000	93.457657
1004.000000	93.472241
1002.000000	93.529364
1000.000000	93.337773
998.000000	93.509026
996.000000	93.418793
994.000000	93.353153
992.000000	93.469596
990.000000	93.541076
988.000000	93.466304
986.000000	93.610442
984.000000	93.456625
982.000000	93.428525
980.000000	93.575947
978.000000	93.622803
976.000000	93.498640
974.000000	93.237166
972.000000	93.514069
970.000000	93.322150
968.000000	93.321869
966.000000	93.437563
964.000000	93.321432
962.000000	93.405078
960.000000	93.312150
958.000000	93.552818
956.000000	93.377600
954.000000	93.497519
952.000000	93.173893
950.000000	93.418922
948.000000	93.531517
946.000000	93.500419
944.000000	93.281428
942.000000	93.307084
940.000000	93.258677
938.000000	93.336810
936.000000	93.238284
934.000000	93.293663
932.000000	93.467417
930.000000	93.431348
928.000000	93.262091
926.000000	93.609867
924.000000	93.586300
922.000000	93.474113
920.000000	93.476308
918.000000	93.558232
916.000000	93.427988
914.000000	93.409659
912.000000	93.524027
910.000000	93.584209
908.000000	93.267113
906.000000	93.346061
904.000000	93.567342
902.000000	93.532995
900.000000	93.417326
898.000000	93.586180
896.000000	93.399250
894.000000	93.411860
892.000000	93.420287
890.000000	93.377313
888.000000	93.410563
886.000000	93.420660
884.000000	93.563297
882.000000	93.618442
880.000000	93.529450
878.000000	93.478825
876.000000	93.367448
874.000000	93.386443
872.000000	93.439656
870.000000	93.443209
868.000000	93.581605
866.000000	93.504683
864.000000	93.492182
862.000000	93.524675
860.000000	93.455268
858.000000	93.453315
856.000000	93.483327
854.000000	93.247871
852.000000	93.341613
850.000000	93.344823
848.000000	93.380479
846.000000	93.494696
844.000000	93.604918
842.000000	93.621659
840.000000	93.339606
838.000000	93.389632
836.000000	93.493978
834.000000	93.378152
832.000000	93.322003
830.000000	93.521262
828.000000	93.467707
826.000000	93.418199
824.000000	93.441710
822.000000	93.501601
820.000000	93.423455
