PE UV       SUBTECH     SPECTRUM    ASCII       PEDS        4.00        
   -1
Sample882.Sample.asc
12/04/24
10:58:29.00
12/04/24
10:58:29.00
Analyst
ITO4_1_A
250.000000
1
Lambda 950
950N6032301
PerkinElmer UV WinLab 5.1.5.0637 / 1.61.00 Lambda 900

0
0
3350/servo 860.8/2
0
0
UV/VIS
1
1
1
RBeamAtt,SBeamAtt,150mm sphere / downward view
0
0
0
0
Program
Program
3350/servo 860.8/2
3350/1 860.8/1
3350/1 860.8/1
0
1
 
 
 
0
 
860.8
319.2
860.8
Front
100
 
S:100 R:100
 
0
0
0
 
0
 
 
 
0
 
 
0
0
0
0
0
 
 
 
 
0
0
#HDR
-1
-1
#GR
nm
%T
1.0
0.0
2500.000000
-1.000000
2251
8
12.839801
2.369383
#DATA
2500.000000	5.026538
2499.000000	4.827540
2498.000000	4.045728
2497.000000	3.803118
2496.000000	4.732796
2495.000000	4.561566
2494.000000	4.523561
2493.000000	4.141889
2492.000000	3.432015
2491.000000	5.150401
2490.000000	4.314711
2489.000000	3.361147
2488.000000	4.311837
2487.000000	5.069319
2486.000000	3.562379
2485.000000	5.075669
2484.000000	4.306886
2483.000000	3.627951
2482.000000	2.812370
2481.000000	3.861361
2480.000000	3.779903
2479.000000	4.200602
2478.000000	4.250568
2477.000000	4.861484
2476.000000	3.991816
2475.000000	4.833262
2474.000000	3.053769
2473.000000	4.028305
2472.000000	4.376662
2471.000000	4.037335
2470.000000	4.075003
2469.000000	3.707653
2468.000000	3.693452
2467.000000	3.838134
2466.000000	5.157346
2465.000000	3.740976
2464.000000	3.963674
2463.000000	3.980802
2462.000000	2.857480
2461.000000	3.834337
2460.000000	4.252651
2459.000000	4.092537
2458.000000	3.717148
2457.000000	4.362465
2456.000000	3.403423
2455.000000	4.422958
2454.000000	4.053817
2453.000000	2.369383
2452.000000	4.177411
2451.000000	4.242234
2450.000000	4.311742
2449.000000	3.695067
2448.000000	3.029718
2447.000000	4.092103
2446.000000	5.000749
2445.000000	4.592128
2444.000000	3.685602
2443.000000	4.969364
2442.000000	3.982063
2441.000000	2.992363
2440.000000	4.243421
2439.000000	3.807205
2438.000000	4.075846
2437.000000	3.411068
2436.000000	3.999307
2435.000000	3.841384
2434.000000	3.723880
2433.000000	4.044144
2432.000000	4.464898
2431.000000	4.858257
2430.000000	4.850084
2429.000000	3.721992
2428.000000	3.673005
2427.000000	4.387102
2426.000000	3.587993
2425.000000	3.378069
2424.000000	3.476811
2423.000000	4.159024
2422.000000	4.406280
2421.000000	4.264818
2420.000000	4.507930
2419.000000	4.261792
2418.000000	4.317329
2417.000000	4.414807
2416.000000	3.962677
2415.000000	4.065259
2414.000000	3.744014
2413.000000	3.435756
2412.000000	4.474262
2411.000000	4.710046
2410.000000	3.584670
2409.000000	3.596558
2408.000000	3.880587
2407.000000	3.648478
2406.000000	3.714466
2405.000000	4.532673
2404.000000	4.018115
2403.000000	4.497254
2402.000000	4.648773
2401.000000	4.812423
2400.000000	4.564034
2399.000000	4.052387
2398.000000	4.018419
2397.000000	4.076032
2396.000000	3.606828
2395.000000	3.700242
2394.000000	4.206821
2393.000000	3.832114
2392.000000	4.031777
2391.000000	3.899207
2390.000000	3.686639
2389.000000	4.020009
2388.000000	4.549150
2387.000000	4.286233
2386.000000	4.090339
2385.000000	4.002010
2384.000000	4.143950
2383.000000	3.950812
2382.000000	4.000516
2381.000000	4.172101
2380.000000	4.360381
2379.000000	4.662498
2378.000000	4.436382
2377.000000	4.246507
2376.000000	4.513565
2375.000000	4.212544
2374.000000	4.189043
2373.000000	4.357621
2372.000000	3.691490
2371.000000	4.032214
2370.000000	4.480034
2369.000000	4.298022
2368.000000	4.084915
2367.000000	3.686828
2366.000000	4.217420
2365.000000	4.284360
2364.000000	4.090529
2363.000000	4.101353
2362.000000	4.257173
2361.000000	4.383232
2360.000000	4.073163
2359.000000	3.837339
2358.000000	3.278521
2357.000000	3.733747
2356.000000	4.642634
2355.000000	4.307116
2354.000000	4.056381
2353.000000	4.313280
2352.000000	4.447225
2351.000000	4.317880
2350.000000	4.233533
2349.000000	4.177613
2348.000000	3.557509
2347.000000	3.692437
2346.000000	3.614336
2345.000000	3.899140
2344.000000	4.046491
2343.000000	3.851696
2342.000000	3.936387
2341.000000	3.986067
2340.000000	4.017072
2339.000000	4.107826
2338.000000	3.817341
2337.000000	3.836962
2336.000000	4.228408
2335.000000	4.538874
2334.000000	4.433982
2333.000000	4.093508
2332.000000	4.359979
2331.000000	4.358633
2330.000000	4.141558
2329.000000	3.892978
2328.000000	3.776214
2327.000000	4.223385
2326.000000	3.858328
2325.000000	4.021552
2324.000000	4.060597
2323.000000	3.812214
2322.000000	3.837757
2321.000000	3.951096
2320.000000	4.072906
2319.000000	3.539571
2318.000000	3.894389
2317.000000	4.252692
2316.000000	4.300395
2315.000000	4.023849
2314.000000	4.414972
2313.000000	4.249643
2312.000000	4.270733
2311.000000	3.807352
2310.000000	4.082434
2309.000000	3.696661
2308.000000	3.694203
2307.000000	3.801057
2306.000000	4.202771
2305.000000	4.180080
2304.000000	4.287527
2303.000000	4.138427
2302.000000	4.203916
2301.000000	4.441839
2300.000000	4.486271
2299.000000	4.108210
2298.000000	4.313989
2297.000000	4.352008
2296.000000	3.884127
2295.000000	3.966909
2294.000000	4.208259
2293.000000	4.062203
2292.000000	4.069434
2291.000000	4.002031
2290.000000	4.099476
2289.000000	4.032243
2288.000000	4.284905
2287.000000	4.429573
2286.000000	3.915633
2285.000000	4.044862
2284.000000	3.890785
2283.000000	3.934747
2282.000000	3.932169
2281.000000	4.225486
2280.000000	4.428073
2279.000000	3.906829
2278.000000	4.254506
2277.000000	4.576817
2276.000000	4.132691
2275.000000	4.492946
2274.000000	3.971358
2273.000000	4.430124
2272.000000	4.178617
2271.000000	4.271926
2270.000000	4.122988
2269.000000	4.070587
2268.000000	4.551411
2267.000000	4.267256
2266.000000	4.141750
2265.000000	4.571016
2264.000000	4.125995
2263.000000	4.252909
2262.000000	4.391602
2261.000000	4.015196
2260.000000	4.414760
2259.000000	4.224122
2258.000000	4.147040
2257.000000	4.025580
2256.000000	3.839974
2255.000000	4.026143
2254.000000	4.804048
2253.000000	4.096761
2252.000000	4.317810
2251.000000	4.366469
2250.000000	4.173778
2249.000000	4.123234
2248.000000	4.501345
2247.000000	3.738155
2246.000000	4.525819
2245.000000	4.190692
2244.000000	4.189997
2243.000000	4.395937
2242.000000	4.389151
2241.000000	4.035898
2240.000000	4.039701
2239.000000	4.190800
2238.000000	4.161643
2237.000000	3.834810
2236.000000	4.210726
2235.000000	4.057559
2234.000000	4.495586
2233.000000	3.925650
2232.000000	4.239439
2231.000000	4.055080
2230.000000	4.490161
2229.000000	4.069975
2228.000000	4.301223
2227.000000	3.889700
2226.000000	4.433884
2225.000000	4.257882
2224.000000	4.162466
2223.000000	4.353173
2222.000000	4.068471
2221.000000	4.092498
2220.000000	4.024170
2219.000000	4.263696
2218.000000	4.224199
2217.000000	4.203956
2216.000000	4.026970
2215.000000	4.192648
2214.000000	4.326315
2213.000000	4.465151
2212.000000	4.155825
2211.000000	4.275197
2210.000000	4.131933
2209.000000	4.003251
2208.000000	4.306737
2207.000000	4.145413
2206.000000	4.084609
2205.000000	4.201942
2204.000000	4.349919
2203.000000	4.235829
2202.000000	4.142896
2201.000000	4.029542
2200.000000	4.171858
2199.000000	4.119032
2198.000000	4.276528
2197.000000	4.474290
2196.000000	4.243315
2195.000000	4.288374
2194.000000	4.352883
2193.000000	4.040071
2192.000000	4.440145
2191.000000	4.433641
2190.000000	4.007421
2189.000000	3.683883
2188.000000	4.194923
2187.000000	4.228339
2186.000000	4.291738
2185.000000	4.370252
2184.000000	4.240940
2183.000000	4.335426
2182.000000	4.447961
2181.000000	4.276621
2180.000000	4.149259
2179.000000	4.433790
2178.000000	4.251153
2177.000000	4.082025
2176.000000	4.125045
2175.000000	4.282149
2174.000000	4.166958
2173.000000	4.118550
2172.000000	4.315532
2171.000000	4.347095
2170.000000	4.255222
2169.000000	4.249068
2168.000000	4.174302
2167.000000	4.153412
2166.000000	4.274546
2165.000000	4.312474
2164.000000	4.154446
2163.000000	4.179223
2162.000000	4.053372
2161.000000	4.339304
2160.000000	4.585986
2159.000000	4.588042
2158.000000	4.464565
2157.000000	4.311583
2156.000000	4.182609
2155.000000	4.394749
2154.000000	4.520916
2153.000000	4.263179
2152.000000	4.054733
2151.000000	4.272409
2150.000000	4.500343
2149.000000	4.411510
2148.000000	4.311414
2147.000000	4.393302
2146.000000	4.191489
2145.000000	4.009308
2144.000000	4.255189
2143.000000	4.390283
2142.000000	4.286764
2141.000000	4.501254
2140.000000	4.541858
2139.000000	4.435153
2138.000000	4.476903
2137.000000	4.416541
2136.000000	4.504633
2135.000000	4.264999
2134.000000	4.215236
2133.000000	4.096784
2132.000000	4.189207
2131.000000	4.289485
2130.000000	4.318520
2129.000000	4.582478
2128.000000	4.430270
2127.000000	4.396943
2126.000000	4.384768
2125.000000	4.294103
2124.000000	4.296365
2123.000000	4.207941
2122.000000	4.325053
2121.000000	4.341169
2120.000000	4.414053
2119.000000	4.448452
2118.000000	4.429130
2117.000000	4.391766
2116.000000	4.386716
2115.000000	4.378422
2114.000000	4.229745
2113.000000	4.316066
2112.000000	4.362157
2111.000000	4.223899
2110.000000	4.249794
2109.000000	4.478890
2108.000000	4.428383
2107.000000	4.308041
2106.000000	4.281849
2105.000000	4.443935
2104.000000	4.468928
2103.000000	4.363980
2102.000000	4.351578
2101.000000	4.302117
2100.000000	4.317553
2099.000000	4.443246
2098.000000	4.388495
2097.000000	4.152476
2096.000000	4.436590
2095.000000	4.638384
2094.000000	4.397005
2093.000000	4.247556
2092.000000	4.272212
2091.000000	4.534845
2090.000000	4.553172
2089.000000	4.505573
2088.000000	4.564573
2087.000000	4.573063
2086.000000	4.539189
2085.000000	4.354197
2084.000000	4.278667
2083.000000	4.361028
2082.000000	4.382171
2081.000000	4.499565
2080.000000	4.390321
2079.000000	4.278131
2078.000000	4.486642
2077.000000	4.434607
2076.000000	4.336026
2075.000000	4.596355
2074.000000	4.691309
2073.000000	4.443356
2072.000000	4.401719
2071.000000	4.558869
2070.000000	4.563068
2069.000000	4.336873
2068.000000	4.346513
2067.000000	4.465734
2066.000000	4.353358
2065.000000	4.537319
2064.000000	4.489673
2063.000000	4.449085
2062.000000	4.517900
2061.000000	4.552932
2060.000000	4.415086
2059.000000	4.379008
2058.000000	4.530123
2057.000000	4.542667
2056.000000	4.694000
2055.000000	4.609441
2054.000000	4.522252
2053.000000	4.560445
2052.000000	4.513467
2051.000000	4.431909
2050.000000	4.344905
2049.000000	4.497362
2048.000000	4.507878
2047.000000	4.581339
2046.000000	4.360949
2045.000000	4.461492
2044.000000	4.504449
2043.000000	4.545422
2042.000000	4.541703
2041.000000	4.558214
2040.000000	4.409545
2039.000000	4.413289
2038.000000	4.500479
2037.000000	4.511670
2036.000000	4.460002
2035.000000	4.410359
2034.000000	4.571769
2033.000000	4.596632
2032.000000	4.467539
2031.000000	4.537606
2030.000000	4.507678
2029.000000	4.521859
2028.000000	4.516982
2027.000000	4.622635
2026.000000	4.531872
2025.000000	4.547255
2024.000000	4.670113
2023.000000	4.515105
2022.000000	4.652863
2021.000000	4.465655
2020.000000	4.544615
2019.000000	4.480445
2018.000000	4.447765
2017.000000	4.474383
2016.000000	4.448312
2015.000000	4.616962
2014.000000	4.562388
2013.000000	4.692678
2012.000000	4.587563
2011.000000	4.549369
2010.000000	4.455877
2009.000000	4.526581
2008.000000	4.558829
2007.000000	4.522246
2006.000000	4.483575
2005.000000	4.554167
2004.000000	4.547411
2003.000000	4.609924
2002.000000	4.542592
2001.000000	4.687117
2000.000000	4.580783
1999.000000	4.555318
1998.000000	4.688093
1997.000000	4.604137
1996.000000	4.554146
1995.000000	4.507067
1994.000000	4.639197
1993.000000	4.612905
1992.000000	4.484265
1991.000000	4.645698
1990.000000	4.556087
1989.000000	4.525565
1988.000000	4.508427
1987.000000	4.665777
1986.000000	4.582001
1985.000000	4.691807
1984.000000	4.594285
1983.000000	4.540270
1982.000000	4.569073
1981.000000	4.528371
1980.000000	4.581167
1979.000000	4.593165
1978.000000	4.609131
1977.000000	4.600196
1976.000000	4.733416
1975.000000	4.700382
1974.000000	4.671378
1973.000000	4.684440
1972.000000	4.747035
1971.000000	4.604272
1970.000000	4.556072
1969.000000	4.688188
1968.000000	4.647823
1967.000000	4.689380
1966.000000	4.675961
1965.000000	4.760925
1964.000000	4.753791
1963.000000	4.729834
1962.000000	4.765783
1961.000000	4.623032
1960.000000	4.600190
1959.000000	4.762476
1958.000000	4.729047
1957.000000	4.716934
1956.000000	4.710797
1955.000000	4.681947
1954.000000	4.754293
1953.000000	4.695810
1952.000000	4.720089
1951.000000	4.776949
1950.000000	4.724625
1949.000000	4.689370
1948.000000	4.713427
1947.000000	4.662182
1946.000000	4.816717
1945.000000	4.725433
1944.000000	4.690260
1943.000000	4.749660
1942.000000	4.664096
1941.000000	4.775655
1940.000000	4.851146
1939.000000	4.726968
1938.000000	4.749169
1937.000000	4.861954
1936.000000	4.826359
1935.000000	4.781953
1934.000000	4.693550
1933.000000	4.732009
1932.000000	4.798128
1931.000000	4.769561
1930.000000	4.812314
1929.000000	4.837567
1928.000000	4.919960
1927.000000	4.766921
1926.000000	4.721007
1925.000000	4.743355
1924.000000	4.796621
1923.000000	4.857061
1922.000000	4.823425
1921.000000	4.745733
1920.000000	4.769526
1919.000000	4.829304
1918.000000	4.861976
1917.000000	4.949527
1916.000000	4.972716
1915.000000	4.763826
1914.000000	4.884813
1913.000000	4.864583
1912.000000	4.879260
1911.000000	4.886211
1910.000000	4.767065
1909.000000	4.872738
1908.000000	4.837807
1907.000000	4.759863
1906.000000	4.924113
1905.000000	4.893571
1904.000000	4.911800
1903.000000	4.966757
1902.000000	4.871913
1901.000000	4.889968
1900.000000	4.898494
1899.000000	4.888488
1898.000000	4.845032
1897.000000	4.954174
1896.000000	4.909188
1895.000000	4.847407
1894.000000	4.869846
1893.000000	4.905834
1892.000000	4.934130
1891.000000	4.877454
1890.000000	4.837833
1889.000000	4.945657
1888.000000	4.833310
1887.000000	4.916595
1886.000000	4.922055
1885.000000	4.908704
1884.000000	4.960645
1883.000000	4.984315
1882.000000	4.976436
1881.000000	4.925219
1880.000000	4.876155
1879.000000	4.928136
1878.000000	4.925424
1877.000000	4.919857
1876.000000	5.002834
1875.000000	4.937262
1874.000000	4.979877
1873.000000	4.975607
1872.000000	5.013536
1871.000000	4.967548
1870.000000	4.902495
1869.000000	4.988998
1868.000000	4.980730
1867.000000	4.990085
1866.000000	5.028906
1865.000000	5.016758
1864.000000	4.990893
1863.000000	4.988834
1862.000000	5.014410
1861.000000	5.066303
1860.000000	5.009689
1859.000000	4.972729
1858.000000	5.021764
1857.000000	5.045291
1856.000000	5.024161
1855.000000	5.039526
1854.000000	5.074593
1853.000000	5.115002
1852.000000	5.083765
1851.000000	5.081058
1850.000000	5.045700
1849.000000	5.017235
1848.000000	5.063901
1847.000000	5.082261
1846.000000	5.101869
1845.000000	5.084031
1844.000000	5.045847
1843.000000	5.086159
1842.000000	5.120656
1841.000000	5.133119
1840.000000	5.097544
1839.000000	5.115737
1838.000000	5.141035
1837.000000	5.100737
1836.000000	5.113803
1835.000000	5.129364
1834.000000	5.137354
1833.000000	5.129824
1832.000000	5.125312
1831.000000	5.095471
1830.000000	5.108147
1829.000000	5.164239
1828.000000	5.122683
1827.000000	5.083295
1826.000000	5.086956
1825.000000	5.088801
1824.000000	5.117914
1823.000000	5.148887
1822.000000	5.187147
1821.000000	5.125826
1820.000000	5.148130
1819.000000	5.189075
1818.000000	5.181452
1817.000000	5.182777
1816.000000	5.154640
1815.000000	5.161726
1814.000000	5.177369
1813.000000	5.179922
1812.000000	5.171053
1811.000000	5.186408
1810.000000	5.235652
1809.000000	5.215063
1808.000000	5.211350
1807.000000	5.207716
1806.000000	5.188576
1805.000000	5.186825
1804.000000	5.205601
1803.000000	5.214038
1802.000000	5.202821
1801.000000	5.192503
1800.000000	5.193547
1799.000000	5.208532
1798.000000	5.216854
1797.000000	5.184131
1796.000000	5.221846
1795.000000	5.266497
1794.000000	5.300807
1793.000000	5.280249
1792.000000	5.256899
1791.000000	5.253157
1790.000000	5.274018
1789.000000	5.267253
1788.000000	5.299156
1787.000000	5.330983
1786.000000	5.281179
1785.000000	5.299795
1784.000000	5.320742
1783.000000	5.316461
1782.000000	5.315150
1781.000000	5.258939
1780.000000	5.306393
1779.000000	5.341497
1778.000000	5.311860
1777.000000	5.354568
1776.000000	5.394627
1775.000000	5.368584
1774.000000	5.316183
1773.000000	5.330260
1772.000000	5.392942
1771.000000	5.327175
1770.000000	5.381579
1769.000000	5.359159
1768.000000	5.339875
1767.000000	5.381626
1766.000000	5.398170
1765.000000	5.369825
1764.000000	5.403932
1763.000000	5.389054
1762.000000	5.404596
1761.000000	5.426717
1760.000000	5.419385
1759.000000	5.430916
1758.000000	5.407465
1757.000000	5.408852
1756.000000	5.382232
1755.000000	5.422815
1754.000000	5.416018
1753.000000	5.389612
1752.000000	5.451386
1751.000000	5.460629
1750.000000	5.466667
1749.000000	5.447957
1748.000000	5.495676
1747.000000	5.498926
1746.000000	5.512258
1745.000000	5.435606
1744.000000	5.432264
1743.000000	5.453970
1742.000000	5.474591
1741.000000	5.530539
1740.000000	5.541131
1739.000000	5.514782
1738.000000	5.490703
1737.000000	5.497833
1736.000000	5.507935
1735.000000	5.545099
1734.000000	5.522008
1733.000000	5.549335
1732.000000	5.526364
1731.000000	5.567201
1730.000000	5.527337
1729.000000	5.606130
1728.000000	5.526170
1727.000000	5.563490
1726.000000	5.567205
1725.000000	5.573704
1724.000000	5.544641
1723.000000	5.603799
1722.000000	5.584074
1721.000000	5.581107
1720.000000	5.574030
1719.000000	5.570048
1718.000000	5.569846
1717.000000	5.640344
1716.000000	5.571797
1715.000000	5.613141
1714.000000	5.633734
1713.000000	5.662630
1712.000000	5.537617
1711.000000	5.616599
1710.000000	5.633320
1709.000000	5.659547
1708.000000	5.638119
1707.000000	5.695412
1706.000000	5.628226
1705.000000	5.630301
1704.000000	5.640684
1703.000000	5.624336
1702.000000	5.714217
1701.000000	5.734976
1700.000000	5.674837
1699.000000	5.690089
1698.000000	5.658214
1697.000000	5.660866
1696.000000	5.722235
1695.000000	5.713872
1694.000000	5.726173
1693.000000	5.750000
1692.000000	5.736423
1691.000000	5.728149
1690.000000	5.737225
1689.000000	5.764103
1688.000000	5.736948
1687.000000	5.745326
1686.000000	5.788897
1685.000000	5.772298
1684.000000	5.752184
1683.000000	5.774686
1682.000000	5.770488
1681.000000	5.737217
1680.000000	5.796718
1679.000000	5.822775
1678.000000	5.827062
1677.000000	5.848530
1676.000000	5.847929
1675.000000	5.852294
1674.000000	5.882482
1673.000000	5.839815
1672.000000	5.813909
1671.000000	5.828363
1670.000000	5.861000
1669.000000	5.836924
1668.000000	5.835864
1667.000000	5.814137
1666.000000	5.888939
1665.000000	5.886386
1664.000000	5.854004
1663.000000	5.854672
1662.000000	5.916236
1661.000000	5.899355
1660.000000	5.903849
1659.000000	5.925924
1658.000000	5.911429
1657.000000	5.871950
1656.000000	5.939132
1655.000000	5.946788
1654.000000	5.928540
1653.000000	5.924807
1652.000000	5.942906
1651.000000	5.962053
1650.000000	5.964926
1649.000000	5.964042
1648.000000	5.964940
1647.000000	5.956117
1646.000000	5.929148
1645.000000	5.952904
1644.000000	5.998750
1643.000000	5.984462
1642.000000	5.995506
1641.000000	5.981698
1640.000000	5.991794
1639.000000	6.012566
1638.000000	6.011393
1637.000000	6.014856
1636.000000	6.048018
1635.000000	6.023943
1634.000000	6.064234
1633.000000	6.040085
1632.000000	6.035830
1631.000000	6.089524
1630.000000	6.071943
1629.000000	6.069261
1628.000000	6.079448
1627.000000	6.094479
1626.000000	6.088503
1625.000000	6.086134
1624.000000	6.086812
1623.000000	6.088327
