PE UV       SUBTECH     SPECTRUM    ASCII       PEDS        4.00        
   -1
Sample884.Sample.asc
12/04/24
12:41:51.00
12/04/24
12:41:51.00
Analyst
ITO4_3_A
250.000000
1
Lambda 950
950N6032301
PerkinElmer UV WinLab 5.1.5.0637 / 1.61.00 Lambda 900

0
0
3350/servo 860.8/2
0
0
UV/VIS
1
1
1
RBeamAtt,SBeamAtt,150mm sphere / downward view
0
0
0
0
Program
Program
3350/servo 860.8/2
3350/1 860.8/1
3350/1 860.8/1
0
1
 
 
 
0
 
860.8
319.2
860.8
Front
100
 
S:100 R:100
 
0
0
0
 
0
 
 
 
0
 
 
0
0
0
0
0
 
 
 
 
0
0
#HDR
-1
-1
#GR
nm
%T
1.0
0.0
2500.000000
-1.000000
2251
8
15.656082
3.081955
#DATA
2500.000000	5.308382
2499.000000	4.062953
2498.000000	4.355383
2497.000000	5.354994
2496.000000	3.081955
2495.000000	5.162984
2494.000000	6.135518
2493.000000	4.127633
2492.000000	4.687788
2491.000000	4.430159
2490.000000	4.620288
2489.000000	4.906375
2488.000000	4.870410
2487.000000	5.451437
2486.000000	4.392130
2485.000000	4.678715
2484.000000	4.096576
2483.000000	3.518734
2482.000000	3.297824
2481.000000	4.838088
2480.000000	4.437792
2479.000000	4.944392
2478.000000	4.459987
2477.000000	5.390119
2476.000000	4.850545
2475.000000	5.101162
2474.000000	4.742002
2473.000000	3.394517
2472.000000	5.162531
2471.000000	4.177541
2470.000000	3.669043
2469.000000	3.236261
2468.000000	4.421109
2467.000000	4.345803
2466.000000	3.822953
2465.000000	5.266203
2464.000000	3.511195
2463.000000	4.006439
2462.000000	3.443086
2461.000000	3.917856
2460.000000	3.890067
2459.000000	4.390961
2458.000000	4.773007
2457.000000	4.539490
2456.000000	4.715740
2455.000000	4.247923
2454.000000	4.038694
2453.000000	3.433316
2452.000000	4.497366
2451.000000	4.544299
2450.000000	4.132415
2449.000000	3.612383
2448.000000	4.056978
2447.000000	3.832519
2446.000000	5.135461
2445.000000	5.075995
2444.000000	3.983497
2443.000000	4.558889
2442.000000	3.892951
2441.000000	3.499930
2440.000000	4.695453
2439.000000	3.787785
2438.000000	4.689380
2437.000000	3.342611
2436.000000	4.557272
2435.000000	4.428218
2434.000000	4.499979
2433.000000	5.544135
2432.000000	4.545876
2431.000000	4.181726
2430.000000	4.230297
2429.000000	3.851939
2428.000000	3.697736
2427.000000	4.688556
2426.000000	4.142076
2425.000000	3.951934
2424.000000	4.246104
2423.000000	4.793040
2422.000000	4.737076
2421.000000	4.390049
2420.000000	4.537552
2419.000000	4.798183
2418.000000	4.467621
2417.000000	4.069931
2416.000000	4.202002
2415.000000	5.293258
2414.000000	4.492305
2413.000000	3.684874
2412.000000	4.673320
2411.000000	4.544203
2410.000000	4.346277
2409.000000	4.079663
2408.000000	4.952240
2407.000000	4.775123
2406.000000	4.150676
2405.000000	4.634204
2404.000000	5.170860
2403.000000	4.715317
2402.000000	4.595661
2401.000000	4.375096
2400.000000	4.803968
2399.000000	4.567257
2398.000000	4.694966
2397.000000	4.949990
2396.000000	4.312708
2395.000000	4.603800
2394.000000	4.830133
2393.000000	4.373152
2392.000000	4.626476
2391.000000	4.626258
2390.000000	4.281185
2389.000000	4.288391
2388.000000	4.632174
2387.000000	4.871822
2386.000000	4.569397
2385.000000	4.300598
2384.000000	4.592449
2383.000000	4.521629
2382.000000	4.157860
2381.000000	4.546015
2380.000000	4.710695
2379.000000	4.718844
2378.000000	5.052515
2377.000000	4.536905
2376.000000	4.454354
2375.000000	4.465539
2374.000000	4.323864
2373.000000	4.364354
2372.000000	4.626042
2371.000000	4.733301
2370.000000	4.855601
2369.000000	4.843454
2368.000000	4.781470
2367.000000	4.838197
2366.000000	4.648754
2365.000000	4.432693
2364.000000	4.314455
2363.000000	4.421131
2362.000000	4.450612
2361.000000	4.759371
2360.000000	4.574233
2359.000000	4.509083
2358.000000	4.337039
2357.000000	4.421016
2356.000000	4.871853
2355.000000	4.486783
2354.000000	4.246953
2353.000000	4.798196
2352.000000	4.932642
2351.000000	4.639117
2350.000000	4.660440
2349.000000	4.607409
2348.000000	4.138102
2347.000000	4.401005
2346.000000	4.519803
2345.000000	4.268100
2344.000000	4.492573
2343.000000	4.900654
2342.000000	4.866741
2341.000000	4.587399
2340.000000	4.360531
2339.000000	4.481728
2338.000000	4.392991
2337.000000	4.377526
2336.000000	4.662281
2335.000000	4.838860
2334.000000	4.582898
2333.000000	4.320993
2332.000000	4.374989
2331.000000	4.426637
2330.000000	4.665547
2329.000000	4.501433
2328.000000	4.502854
2327.000000	4.688567
2326.000000	4.174664
2325.000000	4.412453
2324.000000	4.376625
2323.000000	4.337520
2322.000000	4.418779
2321.000000	4.847920
2320.000000	4.580919
2319.000000	4.008072
2318.000000	4.079136
2317.000000	4.457153
2316.000000	4.686439
2315.000000	4.502645
2314.000000	4.707509
2313.000000	4.692093
2312.000000	4.741645
2311.000000	4.444775
2310.000000	4.342837
2309.000000	4.299437
2308.000000	4.312791
2307.000000	4.199490
2306.000000	4.727891
2305.000000	4.605495
2304.000000	4.698973
2303.000000	4.888903
2302.000000	4.581866
2301.000000	4.805878
2300.000000	4.767901
2299.000000	4.171267
2298.000000	4.563992
2297.000000	4.431262
2296.000000	4.169710
2295.000000	4.710013
2294.000000	4.566473
2293.000000	4.663887
2292.000000	5.130933
2291.000000	4.621626
2290.000000	4.304919
2289.000000	4.460404
2288.000000	4.484979
2287.000000	4.639823
2286.000000	4.690278
2285.000000	4.589695
2284.000000	4.345528
2283.000000	4.517215
2282.000000	4.310693
2281.000000	4.239848
2280.000000	4.366648
2279.000000	4.965603
2278.000000	4.592665
2277.000000	4.589275
2276.000000	4.180692
2275.000000	4.902436
2274.000000	4.512802
2273.000000	4.742629
2272.000000	4.128442
2271.000000	5.052039
2270.000000	4.799594
2269.000000	4.595422
2268.000000	4.859627
2267.000000	4.806448
2266.000000	4.558477
2265.000000	4.758701
2264.000000	4.638846
2263.000000	4.682874
2262.000000	4.688213
2261.000000	4.300098
2260.000000	4.876943
2259.000000	4.289574
2258.000000	4.500949
2257.000000	4.449521
2256.000000	4.504090
2255.000000	4.457973
2254.000000	5.036913
2253.000000	4.693261
2252.000000	4.870268
2251.000000	4.492301
2250.000000	4.721683
2249.000000	4.561328
2248.000000	4.830287
2247.000000	4.485382
2246.000000	4.904650
2245.000000	4.665718
2244.000000	4.852087
2243.000000	4.905490
2242.000000	5.047929
2241.000000	4.623791
2240.000000	4.403213
2239.000000	4.927647
2238.000000	4.536172
2237.000000	4.560756
2236.000000	4.719893
2235.000000	4.478429
2234.000000	5.085105
2233.000000	4.424963
2232.000000	4.917962
2231.000000	4.403191
2230.000000	4.864942
2229.000000	4.485644
2228.000000	4.903099
2227.000000	4.532495
2226.000000	5.092456
2225.000000	4.597111
2224.000000	4.695727
2223.000000	4.901884
2222.000000	4.437737
2221.000000	4.587971
2220.000000	4.706867
2219.000000	4.804169
2218.000000	4.449855
2217.000000	4.656503
2216.000000	4.407524
2215.000000	5.006805
2214.000000	4.938011
2213.000000	4.826142
2212.000000	4.858542
2211.000000	4.486466
2210.000000	4.860145
2209.000000	4.666391
2208.000000	4.836248
2207.000000	4.897702
2206.000000	4.664729
2205.000000	4.593782
2204.000000	4.685977
2203.000000	4.694599
2202.000000	4.792302
2201.000000	4.703959
2200.000000	4.705932
2199.000000	4.790724
2198.000000	4.603754
2197.000000	4.887646
2196.000000	5.027217
2195.000000	4.714264
2194.000000	4.810153
2193.000000	4.727301
2192.000000	4.723640
2191.000000	4.918475
2190.000000	4.793009
2189.000000	4.477813
2188.000000	4.391541
2187.000000	4.556957
2186.000000	4.888405
2185.000000	4.839887
2184.000000	4.748629
2183.000000	4.781676
2182.000000	5.010576
2181.000000	4.923852
2180.000000	4.990388
2179.000000	4.960741
2178.000000	4.561677
2177.000000	4.688793
2176.000000	4.784898
2175.000000	4.830940
2174.000000	4.552604
2173.000000	4.800650
2172.000000	4.895233
2171.000000	4.924655
2170.000000	4.895917
2169.000000	4.863155
2168.000000	4.898888
2167.000000	4.950131
2166.000000	4.758192
2165.000000	4.669680
2164.000000	4.753040
2163.000000	5.124050
2162.000000	4.828579
2161.000000	4.688613
2160.000000	4.882034
2159.000000	4.969472
2158.000000	4.744231
2157.000000	4.765209
2156.000000	4.889852
2155.000000	4.935638
2154.000000	4.937940
2153.000000	4.845694
2152.000000	4.943673
2151.000000	4.878616
2150.000000	4.993204
2149.000000	4.645540
2148.000000	4.698056
2147.000000	5.007204
2146.000000	4.902440
2145.000000	4.743279
2144.000000	4.772055
2143.000000	5.230464
2142.000000	5.004033
2141.000000	5.200989
2140.000000	5.166792
2139.000000	4.824379
2138.000000	4.698144
2137.000000	4.683734
2136.000000	4.762230
2135.000000	4.971236
2134.000000	5.071844
2133.000000	4.811030
2132.000000	4.932742
2131.000000	5.016167
2130.000000	4.808771
2129.000000	4.907432
2128.000000	4.687592
2127.000000	4.863345
2126.000000	4.992727
2125.000000	5.048403
2124.000000	4.973071
2123.000000	4.948842
2122.000000	4.904084
2121.000000	4.826919
2120.000000	4.977041
2119.000000	4.865078
2118.000000	4.838532
2117.000000	4.847642
2116.000000	4.919370
2115.000000	4.821272
2114.000000	4.762589
2113.000000	5.025091
2112.000000	5.018628
2111.000000	4.896753
2110.000000	4.893262
2109.000000	4.970482
2108.000000	4.992327
2107.000000	5.049045
2106.000000	4.877117
2105.000000	4.900223
2104.000000	5.054727
2103.000000	5.046888
2102.000000	4.979490
2101.000000	4.853491
2100.000000	4.959695
2099.000000	4.932433
2098.000000	4.977940
2097.000000	5.065088
2096.000000	5.051916
2095.000000	5.052397
2094.000000	4.906290
2093.000000	4.868435
2092.000000	4.880400
2091.000000	4.960927
2090.000000	5.005837
2089.000000	5.064541
2088.000000	5.075225
2087.000000	5.066469
2086.000000	5.074276
2085.000000	5.022842
2084.000000	4.853353
2083.000000	4.899476
2082.000000	4.993003
2081.000000	5.053756
2080.000000	4.983214
2079.000000	4.937365
2078.000000	5.157890
2077.000000	5.116917
2076.000000	4.938550
2075.000000	5.063032
2074.000000	5.144662
2073.000000	4.982094
2072.000000	5.009574
2071.000000	5.091523
2070.000000	4.932181
2069.000000	4.983688
2068.000000	5.227308
2067.000000	5.103710
2066.000000	4.869658
2065.000000	5.062754
2064.000000	5.055133
2063.000000	4.890670
2062.000000	5.089185
2061.000000	5.223102
2060.000000	5.090251
2059.000000	5.006443
2058.000000	5.094181
2057.000000	5.083742
2056.000000	5.229291
2055.000000	5.167938
2054.000000	5.059551
2053.000000	5.165344
2052.000000	5.110086
2051.000000	4.968501
2050.000000	4.976197
2049.000000	5.033341
2048.000000	4.975778
2047.000000	5.030770
2046.000000	5.070916
2045.000000	5.104929
2044.000000	4.978087
2043.000000	5.147337
2042.000000	5.061005
2041.000000	5.014922
2040.000000	5.011071
2039.000000	5.044853
2038.000000	4.984637
2037.000000	5.081166
2036.000000	5.062878
2035.000000	5.161194
2034.000000	5.228081
2033.000000	5.211313
2032.000000	5.097500
2031.000000	5.097030
2030.000000	5.163196
2029.000000	5.115197
2028.000000	5.078666
2027.000000	5.090814
2026.000000	5.085189
2025.000000	5.080730
2024.000000	5.240390
2023.000000	5.118110
2022.000000	5.191403
2021.000000	5.046699
2020.000000	5.158131
2019.000000	5.146118
2018.000000	5.087991
2017.000000	5.165120
2016.000000	5.057476
2015.000000	5.286203
2014.000000	5.133276
2013.000000	5.262420
2012.000000	5.122154
2011.000000	5.235359
2010.000000	5.044031
2009.000000	5.134678
2008.000000	5.223039
2007.000000	5.070148
2006.000000	5.141306
2005.000000	5.095872
2004.000000	5.207453
2003.000000	5.197538
2002.000000	5.098567
2001.000000	5.220403
2000.000000	5.218325
1999.000000	5.162112
1998.000000	5.308689
1997.000000	5.170184
1996.000000	5.188294
1995.000000	5.109330
1994.000000	5.242467
1993.000000	5.200148
1992.000000	5.183518
1991.000000	5.159065
1990.000000	5.254933
1989.000000	5.193273
1988.000000	5.197627
1987.000000	5.257985
1986.000000	5.210633
1985.000000	5.238244
1984.000000	5.232597
1983.000000	5.182254
1982.000000	5.233513
1981.000000	5.176495
1980.000000	5.195771
1979.000000	5.177322
1978.000000	5.292106
1977.000000	5.225446
1976.000000	5.322001
1975.000000	5.302075
1974.000000	5.208747
1973.000000	5.226225
1972.000000	5.330260
1971.000000	5.208252
1970.000000	5.201024
1969.000000	5.293570
1968.000000	5.241866
1967.000000	5.224167
1966.000000	5.253699
1965.000000	5.338994
1964.000000	5.346544
1963.000000	5.371777
1962.000000	5.438279
1961.000000	5.168070
1960.000000	5.153939
1959.000000	5.306613
1958.000000	5.233838
1957.000000	5.268325
1956.000000	5.278521
1955.000000	5.420024
1954.000000	5.327887
1953.000000	5.260972
1952.000000	5.224484
1951.000000	5.226907
1950.000000	5.206413
1949.000000	5.314952
1948.000000	5.305996
1947.000000	5.256721
1946.000000	5.422793
1945.000000	5.238001
1944.000000	5.285019
1943.000000	5.304195
1942.000000	5.297698
1941.000000	5.322807
1940.000000	5.346446
1939.000000	5.370260
1938.000000	5.377630
1937.000000	5.370199
1936.000000	5.415518
1935.000000	5.297337
1934.000000	5.321769
1933.000000	5.264625
1932.000000	5.443094
1931.000000	5.415868
1930.000000	5.379202
1929.000000	5.360315
1928.000000	5.453529
1927.000000	5.443631
1926.000000	5.419884
1925.000000	5.488729
1924.000000	5.233503
1923.000000	5.432193
1922.000000	5.497854
1921.000000	5.451834
1920.000000	5.432684
1919.000000	5.504903
1918.000000	5.418340
1917.000000	5.495287
1916.000000	5.480065
1915.000000	5.348367
1914.000000	5.400169
1913.000000	5.394310
1912.000000	5.451941
1911.000000	5.457725
1910.000000	5.437455
1909.000000	5.377754
1908.000000	5.442108
1907.000000	5.365126
1906.000000	5.575326
1905.000000	5.532483
1904.000000	5.453718
1903.000000	5.469619
1902.000000	5.431302
1901.000000	5.446218
1900.000000	5.516736
1899.000000	5.421812
1898.000000	5.466003
1897.000000	5.535145
1896.000000	5.500170
1895.000000	5.448980
1894.000000	5.534660
1893.000000	5.572933
1892.000000	5.601211
1891.000000	5.517305
1890.000000	5.468903
1889.000000	5.504362
1888.000000	5.462126
1887.000000	5.548313
1886.000000	5.562058
1885.000000	5.494849
1884.000000	5.472731
1883.000000	5.530465
1882.000000	5.512111
1881.000000	5.439178
1880.000000	5.539237
1879.000000	5.541218
1878.000000	5.554630
1877.000000	5.526405
1876.000000	5.571675
1875.000000	5.541680
1874.000000	5.556032
1873.000000	5.603596
1872.000000	5.587433
1871.000000	5.519853
1870.000000	5.525703
1869.000000	5.545904
1868.000000	5.565654
1867.000000	5.558555
1866.000000	5.667467
1865.000000	5.638577
1864.000000	5.616189
1863.000000	5.585634
1862.000000	5.571068
1861.000000	5.627430
1860.000000	5.632696
1859.000000	5.592112
1858.000000	5.636029
1857.000000	5.633152
1856.000000	5.581293
1855.000000	5.651799
1854.000000	5.673012
1853.000000	5.660637
1852.000000	5.633882
1851.000000	5.659154
1850.000000	5.650705
1849.000000	5.666364
1848.000000	5.697424
1847.000000	5.678338
1846.000000	5.685857
1845.000000	5.657669
1844.000000	5.641578
1843.000000	5.626705
1842.000000	5.658791
1841.000000	5.708409
1840.000000	5.692102
1839.000000	5.706245
1838.000000	5.735555
1837.000000	5.696869
1836.000000	5.723572
1835.000000	5.682690
1834.000000	5.685257
1833.000000	5.715095
1832.000000	5.694225
1831.000000	5.692931
1830.000000	5.723623
1829.000000	5.795411
1828.000000	5.737891
1827.000000	5.698681
1826.000000	5.750259
1825.000000	5.789257
1824.000000	5.793092
1823.000000	5.759272
1822.000000	5.735262
1821.000000	5.724734
1820.000000	5.765003
1819.000000	5.792850
1818.000000	5.773244
1817.000000	5.812333
1816.000000	5.767557
1815.000000	5.730053
1814.000000	5.800001
1813.000000	5.791249
1812.000000	5.790626
1811.000000	5.794702
1810.000000	5.801860
1809.000000	5.787266
1808.000000	5.768548
1807.000000	5.786507
1806.000000	5.782705
1805.000000	5.803622
1804.000000	5.813658
1803.000000	5.809390
1802.000000	5.805603
1801.000000	5.815895
1800.000000	5.812850
1799.000000	5.849224
1798.000000	5.831904
1797.000000	5.824589
1796.000000	5.853397
1795.000000	5.862648
1794.000000	5.842223
1793.000000	5.831749
1792.000000	5.851840
1791.000000	5.830566
1790.000000	5.868824
1789.000000	5.859044
1788.000000	5.883903
1787.000000	5.915922
1786.000000	5.880321
1785.000000	5.870367
1784.000000	5.907845
1783.000000	5.894764
1782.000000	5.918477
1781.000000	5.880744
1780.000000	5.882459
1779.000000	5.902783
1778.000000	5.913216
1777.000000	5.927078
1776.000000	5.948421
1775.000000	5.937733
1774.000000	5.934822
1773.000000	5.930705
1772.000000	5.959486
1771.000000	5.904041
1770.000000	5.959011
1769.000000	5.947433
1768.000000	5.944986
1767.000000	5.948717
1766.000000	5.971108
1765.000000	5.972217
1764.000000	5.979001
1763.000000	5.940650
1762.000000	6.002820
1761.000000	6.044210
1760.000000	5.976781
1759.000000	5.990370
1758.000000	6.030062
1757.000000	6.028253
1756.000000	6.011015
1755.000000	5.999750
1754.000000	6.022205
1753.000000	6.026092
1752.000000	6.030194
1751.000000	6.089462
1750.000000	6.013643
1749.000000	6.042011
1748.000000	6.014017
1747.000000	6.046841
1746.000000	6.107954
1745.000000	6.029128
1744.000000	6.066235
1743.000000	6.025384
1742.000000	6.068310
1741.000000	6.074333
1740.000000	6.078804
1739.000000	6.026008
1738.000000	6.091272
1737.000000	6.020085
1736.000000	6.057499
1735.000000	6.161366
1734.000000	6.105581
1733.000000	6.145919
1732.000000	6.126197
1731.000000	6.148329
1730.000000	6.087737
1729.000000	6.154329
1728.000000	6.146774
1727.000000	6.139878
1726.000000	6.104816
1725.000000	6.156630
1724.000000	6.128609
1723.000000	6.157875
1722.000000	6.137592
1721.000000	6.175845
1720.000000	6.133962
1719.000000	6.215774
1718.000000	6.152173
1717.000000	6.229022
1716.000000	6.146894
1715.000000	6.146155
1714.000000	6.179505
1713.000000	6.211741
1712.000000	6.124058
1711.000000	6.231448
1710.000000	6.191183
1709.000000	6.211432
1708.000000	6.250955
1707.000000	6.237441
1706.000000	6.227284
1705.000000	6.171951
1704.000000	6.243490
1703.000000	6.242563
1702.000000	6.251218
1701.000000	6.285955
1700.000000	6.239192
1699.000000	6.315766
1698.000000	6.262302
1697.000000	6.266330
1696.000000	6.320562
1695.000000	6.279130
1694.000000	6.277333
1693.000000	6.256611
1692.000000	6.291890
1691.000000	6.303854
1690.000000	6.314286
1689.000000	6.302124
1688.000000	6.326050
1687.000000	6.294438
1686.000000	6.330712
1685.000000	6.323407
1684.000000	6.295079
1683.000000	6.357773
1682.000000	6.345467
1681.000000	6.343341
1680.000000	6.367026
1679.000000	6.388410
1678.000000	6.388189
1677.000000	6.410923
1676.000000	6.385665
1675.000000	6.373894
1674.000000	6.401737
1673.000000	6.409489
1672.000000	6.411531
1671.000000	6.421980
1670.000000	6.410309
1669.000000	6.416119
1668.000000	6.404056
1667.000000	6.420759
1666.000000	6.404494
1665.000000	6.444810
1664.000000	6.432644
1663.000000	6.439619
1662.000000	6.443950
1661.000000	6.442747
1660.000000	6.458060
1659.000000	6.476606
1658.000000	6.460422
1657.000000	6.442380
1656.000000	6.502770
1655.000000	6.505530
1654.000000	6.505878
1653.000000	6.461372
1652.000000	6.464054
1651.000000	6.513272
1650.000000	6.520526
1649.000000	6.524386
1648.000000	6.494135
1647.000000	6.492000
1646.000000	6.494906
1645.000000	6.540235
1644.000000	6.568121
1643.000000	6.544349
1642.000000	6.566907
1641.000000	6.545655
1640.000000	6.569948
1639.000000	6.558372
1638.000000	6.556966
1637.000000	6.599894
1636.000000	6.611441
1635.000000	6.568520
1634.000000	6.610518
1633.000000	6.598692
1632.000000	6.602183
1631.000000	6.602526
1630.000000	6.622983
1629.000000	6.651167
1628.000000	6.610388
1627.000000	6.617471
1626.000000	6.651623
1625.000000	6.640637
1624.000000	6.652473
1623.000000	6.630108
