PE UV       SUBTECH     SPECTRUM    ASCII       PEDS        4.00        
   -1
Sample878.Sample.asc
12/04/23
12:44:41.00
12/04/23
12:44:41.00
Analyst
ITO 4/3-A
250.000000
1
Lambda 950
950N6032301
PerkinElmer UV WinLab 5.1.5.0637 / 1.61.00 Lambda 900

0
0
3350/servo 860.8/2
0
0
UV/VIS
1
1
1
RBeamAtt,SBeamAtt,150mm sphere / downward view
0
0
0
0
Program
Program
3350/servo 860.8/2
3350/1 860.8/1
3350/1 860.8/1
0
1
 
 
 
0
 
860.8
319.2
860.8
Front
100
 
S:100 R:100
 
0
0
0
 
0
 
 
 
0
 
 
0
0
0
0
0
 
 
 
 
0
0
#HDR
-1
-1
#GR
nm
%T
1.0
0.0
2500.000000
-1.000000
2251
8
91.983280
-0.003043
#DATA
2500.000000	83.040700
2499.000000	83.440652
2498.000000	83.403311
2497.000000	82.939661
2496.000000	83.332957
2495.000000	83.278461
2494.000000	83.919478
2493.000000	84.157037
2492.000000	83.502105
2491.000000	83.106732
2490.000000	83.498932
2489.000000	83.676988
2488.000000	83.275857
2487.000000	83.755187
2486.000000	82.786129
2485.000000	83.714752
2484.000000	83.275911
2483.000000	83.794322
2482.000000	83.889409
2481.000000	82.890334
2480.000000	83.704027
2479.000000	83.616494
2478.000000	83.255764
2477.000000	82.651386
2476.000000	84.018047
2475.000000	83.159568
2474.000000	83.462038
2473.000000	83.890709
2472.000000	84.407078
2471.000000	84.417788
2470.000000	83.916632
2469.000000	84.540569
2468.000000	83.693381
2467.000000	83.294847
2466.000000	84.081576
2465.000000	83.986918
2464.000000	83.236422
2463.000000	84.270879
2462.000000	84.196703
2461.000000	84.302360
2460.000000	84.194600
2459.000000	83.991127
2458.000000	84.073656
2457.000000	84.013322
2456.000000	84.407942
2455.000000	84.159274
2454.000000	83.265344
2453.000000	84.541543
2452.000000	84.399858
2451.000000	84.423107
2450.000000	83.812632
2449.000000	83.876219
2448.000000	84.303559
2447.000000	84.561878
2446.000000	84.496362
2445.000000	84.344740
2444.000000	84.262096
2443.000000	84.611272
2442.000000	84.773545
2441.000000	84.332170
2440.000000	83.702755
2439.000000	83.750093
2438.000000	83.972984
2437.000000	84.261958
2436.000000	84.394693
2435.000000	84.056393
2434.000000	83.902609
2433.000000	84.455397
2432.000000	84.594822
2431.000000	85.121668
2430.000000	84.663979
2429.000000	85.019652
2428.000000	84.668533
2427.000000	84.946887
2426.000000	85.063744
2425.000000	84.748224
2424.000000	84.318990
2423.000000	84.356835
2422.000000	84.367592
2421.000000	84.207468
2420.000000	84.436902
2419.000000	84.288313
2418.000000	84.021756
2417.000000	84.237669
2416.000000	84.362542
2415.000000	84.502440
2414.000000	84.383579
2413.000000	84.848689
2412.000000	84.623243
2411.000000	84.279950
2410.000000	84.796694
2409.000000	85.168703
2408.000000	84.911540
2407.000000	84.873948
2406.000000	84.791851
2405.000000	84.556658
2404.000000	84.565997
2403.000000	85.016887
2402.000000	85.054196
2401.000000	85.603385
2400.000000	85.381532
2399.000000	84.953281
2398.000000	85.392284
2397.000000	85.448685
2396.000000	85.321759
2395.000000	85.519573
2394.000000	85.566905
2393.000000	85.263704
2392.000000	85.355491
2391.000000	85.123945
2390.000000	84.523496
2389.000000	84.863449
2388.000000	84.881114
2387.000000	85.025567
2386.000000	85.311096
2385.000000	85.101052
2384.000000	85.234613
2383.000000	85.171399
2382.000000	85.127206
2381.000000	84.895795
2380.000000	84.862246
2379.000000	85.264821
2378.000000	85.259331
2377.000000	85.211202
2376.000000	85.401809
2375.000000	85.564598
2374.000000	85.726155
2373.000000	85.361927
2372.000000	85.256896
2371.000000	85.616470
2370.000000	85.451553
2369.000000	85.490201
2368.000000	85.791527
2367.000000	85.794524
2366.000000	85.919363
2365.000000	85.850616
2364.000000	85.636765
2363.000000	85.375123
2362.000000	85.484163
2361.000000	85.689836
2360.000000	85.743413
2359.000000	85.791515
2358.000000	85.608714
2357.000000	85.596337
2356.000000	85.729038
2355.000000	85.475029
2354.000000	85.222292
2353.000000	85.303082
2352.000000	85.537315
2351.000000	85.674134
2350.000000	85.751812
2349.000000	85.581648
2348.000000	85.535576
2347.000000	85.776580
2346.000000	85.682133
2345.000000	85.464989
2344.000000	85.720637
2343.000000	85.527726
2342.000000	85.813047
2341.000000	86.032963
2340.000000	86.069246
2339.000000	85.885164
2338.000000	85.874433
2337.000000	85.893889
2336.000000	85.696507
2335.000000	85.903088
2334.000000	85.977389
2333.000000	85.897340
2332.000000	86.220267
2331.000000	85.939270
2330.000000	86.032807
2329.000000	86.187274
2328.000000	86.089277
2327.000000	86.032073
2326.000000	85.794254
2325.000000	85.972105
2324.000000	86.425224
2323.000000	86.177979
2322.000000	86.093656
2321.000000	85.975949
2320.000000	86.177967
2319.000000	86.240843
2318.000000	86.308689
2317.000000	86.174767
2316.000000	86.122942
2315.000000	86.307632
2314.000000	86.304373
2313.000000	86.140381
2312.000000	86.124978
2311.000000	86.344471
2310.000000	85.896443
2309.000000	85.976373
2308.000000	86.349608
2307.000000	86.258590
2306.000000	86.219406
2305.000000	86.375515
2304.000000	86.357405
2303.000000	86.284801
2302.000000	86.428669
2301.000000	86.364925
2300.000000	86.343919
2299.000000	86.638253
2298.000000	86.887389
2297.000000	86.419264
2296.000000	86.446448
2295.000000	86.935278
2294.000000	86.497435
2293.000000	86.500712
2292.000000	86.823649
2291.000000	86.835411
2290.000000	86.594282
2289.000000	86.551825
2288.000000	86.493024
2287.000000	86.526107
2286.000000	86.690644
2285.000000	86.574110
2284.000000	86.456573
2283.000000	86.381104
2282.000000	86.761903
2281.000000	86.743244
2280.000000	86.675269
2279.000000	86.525151
2278.000000	86.622769
2277.000000	86.710500
2276.000000	86.950423
2275.000000	86.716439
2274.000000	86.840623
2273.000000	86.669308
2272.000000	86.972587
2271.000000	87.080512
2270.000000	86.801576
2269.000000	87.101227
2268.000000	86.909170
2267.000000	86.908256
2266.000000	86.761188
2265.000000	87.042671
2264.000000	87.015903
2263.000000	86.781196
2262.000000	87.178354
2261.000000	87.151709
2260.000000	87.176094
2259.000000	87.014201
2258.000000	87.008678
2257.000000	87.012160
2256.000000	87.185367
2255.000000	87.103206
2254.000000	87.211705
2253.000000	86.908465
2252.000000	87.293603
2251.000000	86.997854
2250.000000	87.226722
2249.000000	87.148101
2248.000000	87.099442
2247.000000	86.849821
2246.000000	87.026128
2245.000000	87.005267
2244.000000	86.970034
2243.000000	87.126226
2242.000000	86.767604
2241.000000	86.964588
2240.000000	87.061837
2239.000000	87.091520
2238.000000	87.055417
2237.000000	87.218351
2236.000000	86.919068
2235.000000	87.057312
2234.000000	87.052919
2233.000000	87.170473
2232.000000	87.155039
2231.000000	87.072235
2230.000000	87.336136
2229.000000	87.006512
2228.000000	87.031537
2227.000000	87.235611
2226.000000	87.234854
2225.000000	87.397958
2224.000000	87.256168
2223.000000	87.339952
2222.000000	87.303604
2221.000000	87.145387
2220.000000	87.166986
2219.000000	87.539905
2218.000000	87.271264
2217.000000	87.335271
2216.000000	87.569833
2215.000000	87.532668
2214.000000	87.350017
2213.000000	87.413282
2212.000000	87.369187
2211.000000	87.427496
2210.000000	87.528115
2209.000000	87.406513
2208.000000	87.566163
2207.000000	87.604531
2206.000000	87.457306
2205.000000	87.743206
2204.000000	87.625406
2203.000000	87.421776
2202.000000	87.638138
2201.000000	87.632369
2200.000000	87.572187
2199.000000	87.725672
2198.000000	87.766362
2197.000000	87.658312
2196.000000	87.696033
2195.000000	87.621528
2194.000000	87.884818
2193.000000	87.857430
2192.000000	87.742138
2191.000000	87.829066
2190.000000	87.702067
2189.000000	87.783602
2188.000000	87.874509
2187.000000	87.776437
2186.000000	87.859060
2185.000000	87.882606
2184.000000	88.051082
2183.000000	87.963280
2182.000000	87.903952
2181.000000	87.970218
2180.000000	87.931789
2179.000000	87.846136
2178.000000	88.009612
2177.000000	88.181134
2176.000000	88.051163
2175.000000	88.131521
2174.000000	88.242978
2173.000000	87.949852
2172.000000	87.955799
2171.000000	88.137046
2170.000000	88.185036
2169.000000	88.120579
2168.000000	88.090853
2167.000000	87.995267
2166.000000	88.108954
2165.000000	88.291356
2164.000000	88.471808
2163.000000	88.340845
2162.000000	88.116697
2161.000000	88.267389
2160.000000	88.322124
2159.000000	88.349806
2158.000000	88.472371
2157.000000	88.417643
2156.000000	88.445042
2155.000000	88.525982
2154.000000	88.509698
2153.000000	88.623461
2152.000000	88.535822
2151.000000	88.668833
2150.000000	88.672941
2149.000000	88.574446
2148.000000	88.565037
2147.000000	88.645811
2146.000000	88.743997
2145.000000	88.527567
2144.000000	88.399612
2143.000000	88.526626
2142.000000	88.495567
2141.000000	88.605852
2140.000000	88.768231
2139.000000	88.833413
2138.000000	88.673128
2137.000000	88.693998
2136.000000	88.763065
2135.000000	88.551145
2134.000000	88.531659
2133.000000	88.704584
2132.000000	88.647699
2131.000000	88.587201
2130.000000	88.665127
2129.000000	88.767667
2128.000000	88.575632
2127.000000	88.578027
2126.000000	88.739952
2125.000000	88.745709
2124.000000	88.588566
2123.000000	88.642094
2122.000000	88.852269
2121.000000	88.739298
2120.000000	88.839343
2119.000000	88.937489
2118.000000	88.854549
2117.000000	88.858300
2116.000000	88.823128
2115.000000	88.892783
2114.000000	88.923443
2113.000000	88.819718
2112.000000	88.832401
2111.000000	88.896166
2110.000000	88.980066
2109.000000	88.975900
2108.000000	89.017568
2107.000000	88.930366
2106.000000	88.907631
2105.000000	89.017442
2104.000000	89.028659
2103.000000	89.020542
2102.000000	88.896547
2101.000000	88.830342
2100.000000	88.975475
2099.000000	89.082646
2098.000000	89.112121
2097.000000	89.232251
2096.000000	89.105478
2095.000000	89.114039
2094.000000	89.172500
2093.000000	88.931252
2092.000000	88.903262
2091.000000	89.021860
2090.000000	89.137323
2089.000000	89.235632
2088.000000	89.246263
2087.000000	89.153373
2086.000000	89.174173
2085.000000	89.163096
2084.000000	89.146957
2083.000000	89.179046
2082.000000	89.203822
2081.000000	89.138621
2080.000000	89.100412
2079.000000	89.169602
2078.000000	89.261402
2077.000000	89.209547
2076.000000	89.211064
2075.000000	89.275488
2074.000000	89.310791
2073.000000	89.276143
2072.000000	89.305702
2071.000000	89.285852
2070.000000	89.274102
2069.000000	89.304814
2068.000000	89.419276
2067.000000	89.513921
2066.000000	89.536588
2065.000000	89.358408
2064.000000	89.329446
2063.000000	89.461469
2062.000000	89.500316
2061.000000	89.575428
2060.000000	89.577254
2059.000000	89.705291
2058.000000	89.623186
2057.000000	89.542091
2056.000000	89.582177
2055.000000	89.560665
2054.000000	89.502819
2053.000000	89.488071
2052.000000	89.497187
2051.000000	89.494123
2050.000000	89.453426
2049.000000	89.480938
2048.000000	89.498088
2047.000000	89.552879
2046.000000	89.573636
2045.000000	89.544834
2044.000000	89.603957
2043.000000	89.633185
2042.000000	89.546572
2041.000000	89.608050
2040.000000	89.601532
2039.000000	89.600810
2038.000000	89.622567
2037.000000	89.568627
2036.000000	89.578028
2035.000000	89.542837
2034.000000	89.568168
2033.000000	89.647315
2032.000000	89.721169
2031.000000	89.728544
2030.000000	89.686956
2029.000000	89.730595
2028.000000	89.737640
2027.000000	89.655113
2026.000000	89.702523
2025.000000	89.690976
2024.000000	89.736849
2023.000000	89.758414
2022.000000	89.710587
2021.000000	89.660924
2020.000000	89.707847
2019.000000	89.660340
2018.000000	89.883102
2017.000000	89.753299
2016.000000	89.757820
2015.000000	89.817043
2014.000000	89.809967
2013.000000	89.829048
2012.000000	89.771397
2011.000000	89.801515
2010.000000	89.781437
2009.000000	89.828665
2008.000000	89.840085
2007.000000	89.834608
2006.000000	89.952520
2005.000000	89.909679
2004.000000	89.902893
2003.000000	89.907797
2002.000000	89.930610
2001.000000	89.897231
2000.000000	89.873285
1999.000000	89.933304
1998.000000	89.928443
1997.000000	89.986377
1996.000000	90.005768
1995.000000	89.932622
1994.000000	90.008141
1993.000000	89.985464
1992.000000	90.014955
1991.000000	89.980869
1990.000000	90.038838
1989.000000	90.039315
1988.000000	90.001212
1987.000000	90.075294
1986.000000	90.058984
1985.000000	90.019133
1984.000000	90.123301
1983.000000	90.096891
1982.000000	90.034910
1981.000000	90.049414
1980.000000	90.043051
1979.000000	90.094517
1978.000000	90.114673
1977.000000	90.094045
1976.000000	90.084147
1975.000000	90.117067
1974.000000	90.179388
1973.000000	90.182590
1972.000000	90.122180
1971.000000	90.171151
1970.000000	90.080288
1969.000000	90.180182
1968.000000	90.251228
1967.000000	90.168716
1966.000000	90.235261
1965.000000	90.203656
1964.000000	90.238170
1963.000000	90.263962
1962.000000	90.255813
1961.000000	90.183878
1960.000000	90.286525
1959.000000	90.261975
1958.000000	90.265507
1957.000000	90.311659
1956.000000	90.295540
1955.000000	90.347155
1954.000000	90.286509
1953.000000	90.327859
1952.000000	90.283773
1951.000000	90.316154
1950.000000	90.432503
1949.000000	90.340783
1948.000000	90.267445
1947.000000	90.286187
1946.000000	90.343778
1945.000000	90.402577
1944.000000	90.375355
1943.000000	90.414994
1942.000000	90.347305
1941.000000	90.388529
1940.000000	90.460293
1939.000000	90.410643
1938.000000	90.395068
1937.000000	90.511354
1936.000000	90.482369
1935.000000	90.427133
1934.000000	90.371809
1933.000000	90.474616
1932.000000	90.535920
1931.000000	90.507416
1930.000000	90.500224
1929.000000	90.562711
1928.000000	90.509291
1927.000000	90.563371
1926.000000	90.560203
1925.000000	90.486838
1924.000000	90.593756
1923.000000	90.544343
1922.000000	90.577614
1921.000000	90.540004
1920.000000	90.688082
1919.000000	90.626482
1918.000000	90.608814
1917.000000	90.609711
1916.000000	90.654332
1915.000000	90.608739
1914.000000	90.601914
1913.000000	90.644765
1912.000000	90.606032
1911.000000	90.638115
1910.000000	90.680635
1909.000000	90.722067
1908.000000	90.688662
1907.000000	90.703580
1906.000000	90.685130
1905.000000	90.654251
1904.000000	90.726922
1903.000000	90.717145
1902.000000	90.741965
1901.000000	90.767245
1900.000000	90.731491
1899.000000	90.769178
1898.000000	90.794024
1897.000000	90.780596
1896.000000	90.811833
1895.000000	90.844444
1894.000000	90.816923
1893.000000	90.748921
1892.000000	90.760136
1891.000000	90.814245
1890.000000	90.868010
1889.000000	90.908629
1888.000000	90.865490
1887.000000	90.806972
1886.000000	90.870581
1885.000000	90.921682
1884.000000	90.960032
1883.000000	90.978820
1882.000000	90.938708
1881.000000	90.900761
1880.000000	90.911258
1879.000000	90.897165
1878.000000	90.873363
1877.000000	90.896709
1876.000000	90.928401
1875.000000	90.946687
1874.000000	90.916332
1873.000000	90.961503
1872.000000	91.012668
1871.000000	91.040225
1870.000000	91.029420
1869.000000	91.021490
1868.000000	91.050668
1867.000000	90.997615
1866.000000	90.954512
1865.000000	90.978621
1864.000000	90.977454
1863.000000	91.005785
1862.000000	91.076707
1861.000000	91.095884
1860.000000	91.075428
1859.000000	91.051377
1858.000000	91.047972
1857.000000	91.061924
1856.000000	91.087734
1855.000000	91.154034
1854.000000	91.157199
1853.000000	91.144089
1852.000000	91.201660
1851.000000	91.185523
1850.000000	91.212741
1849.000000	91.291908
1848.000000	91.269841
1847.000000	91.245294
1846.000000	91.228500
1845.000000	91.155129
1844.000000	91.128792
1843.000000	91.183457
1842.000000	91.243977
1841.000000	91.274205
1840.000000	91.309069
1839.000000	91.271334
1838.000000	91.196520
1837.000000	91.150359
1836.000000	91.101324
1835.000000	91.154299
1834.000000	91.145933
1833.000000	91.106875
1832.000000	91.207310
1831.000000	91.259677
1830.000000	91.198280
1829.000000	91.191650
1828.000000	91.214131
1827.000000	91.226199
1826.000000	91.251148
1825.000000	91.252343
1824.000000	91.244605
1823.000000	91.218870
1822.000000	91.232702
1821.000000	91.249061
1820.000000	91.243119
1819.000000	91.250203
1818.000000	91.269502
1817.000000	91.279091
1816.000000	91.286496
1815.000000	91.299065
1814.000000	91.299958
1813.000000	91.300892
1812.000000	91.296104
1811.000000	91.279275
1810.000000	91.276618
1809.000000	91.298442
1808.000000	91.323148
1807.000000	91.310435
1806.000000	91.330497
1805.000000	91.360649
1804.000000	91.346420
1803.000000	91.344411
1802.000000	91.348566
1801.000000	91.394737
1800.000000	91.400753
1799.000000	91.412433
1798.000000	91.395031
1797.000000	91.347696
1796.000000	91.364740
1795.000000	91.351929
1794.000000	91.356224
1793.000000	91.404440
1792.000000	91.389623
1791.000000	91.397018
1790.000000	91.402528
1789.000000	91.373452
1788.000000	91.390292
1787.000000	91.373794
1786.000000	91.401558
1785.000000	91.438931
1784.000000	91.435156
1783.000000	91.432114
1782.000000	91.467834
1781.000000	91.457720
1780.000000	91.445086
1779.000000	91.476891
1778.000000	91.482123
1777.000000	91.483192
1776.000000	91.470648
1775.000000	91.479455
1774.000000	91.471701
1773.000000	91.446830
1772.000000	91.464716
1771.000000	91.482018
1770.000000	91.522543
1769.000000	91.522953
1768.000000	91.528050
1767.000000	91.544574
1766.000000	91.538054
1765.000000	91.545563
1764.000000	91.531379
1763.000000	91.528282
1762.000000	91.530667
1761.000000	91.531458
1760.000000	91.511662
1759.000000	91.511847
1758.000000	91.548296
1757.000000	91.551304
1756.000000	91.545869
1755.000000	91.578087
1754.000000	91.592185
1753.000000	91.582665
1752.000000	91.623817
1751.000000	91.587577
1750.000000	91.570938
1749.000000	91.591588
1748.000000	91.582720
1747.000000	91.599549
1746.000000	91.598995
1745.000000	91.615509
1744.000000	91.605444
1743.000000	91.615782
1742.000000	91.619869
1741.000000	91.616858
1740.000000	91.635101
1739.000000	91.641892
1738.000000	91.616846
1737.000000	91.612638
1736.000000	91.640464
1735.000000	91.690644
1734.000000	91.675112
1733.000000	91.657971
1732.000000	91.636562
1731.000000	91.672273
1730.000000	91.676197
1729.000000	91.659207
1728.000000	91.661140
1727.000000	91.683646
1726.000000	91.690556
1725.000000	91.675215
1724.000000	91.725832
1723.000000	91.688570
1722.000000	91.704048
1721.000000	91.679944
1720.000000	91.768446
1719.000000	91.703041
1718.000000	91.694530
1717.000000	91.700832
1716.000000	91.701382
1715.000000	91.687966
1714.000000	91.725642
1713.000000	91.720955
1712.000000	91.722718
1711.000000	91.701378
1710.000000	91.713409
1709.000000	91.758600
1708.000000	91.735000
1707.000000	91.702437
1706.000000	91.699181
1705.000000	91.720190
1704.000000	91.745117
1703.000000	91.735764
1702.000000	91.733506
1701.000000	91.740682
1700.000000	91.762984
1699.000000	91.773546
1698.000000	91.764707
1697.000000	91.761016
1696.000000	91.777682
1695.000000	91.783982
1694.000000	91.785892
1693.000000	91.757319
1692.000000	91.735110
1691.000000	91.777700
1690.000000	91.794394
1689.000000	91.744525
1688.000000	91.800354
1687.000000	91.821976
1686.000000	91.795271
1685.000000	91.845859
1684.000000	91.978801
1683.000000	91.957644
1682.000000	91.958451
1681.000000	91.957538
1680.000000	91.976229
1679.000000	91.976195
1678.000000	91.975143
1677.000000	91.983280
1676.000000	91.977660
1675.000000	91.932488
1674.000000	91.848180
1673.000000	91.801718
1672.000000	91.839696
1671.000000	91.857604
1670.000000	91.889002
1669.000000	91.975726
1668.000000	91.801854
1667.000000	91.813838
1666.000000	91.794652
1665.000000	91.824927
1664.000000	91.805282
1663.000000	91.838023
1662.000000	91.822913
