PE UV       SUBTECH     SPECTRUM    ASCII       PEDS        4.00        
   -1
Sample425.Sample.asc
10/02/23
11:20:02.00
10/02/23
11:20:02.00
Analyst
vetro indesit nudo
300.000000
1
Lambda 950
950N6032301
PerkinElmer UV WinLab 5.1.5.0637 / 1.61.00 Lambda 900

0
0
3350/servo 860.8/2
0
0
UV/VIS
1
1
1
RBeamAtt,SBeamAtt,150mm sphere / downward view
0
0
0
0
Program
Program
3350/servo 860.8/2
3350/1 860.8/1
3350/1 860.8/1
0
1
 
 
 
0
 
860.8
319.2
860.8
Front
100
 
S:100 R:100
 
0
0
0
 
0
 
 
 
0
 
 
0
0
0
0
0
 
 
 
 
0
0
#HDR
-1
-1
#GR
nm
%T
1.0
0.0
2500.000000
-1.000000
2201
8
91.123388
0.032852
#DATA
2500.000000	83.901302
2499.000000	83.657676
2498.000000	83.175750
2497.000000	82.995798
2496.000000	83.534404
2495.000000	83.355759
2494.000000	84.024686
2493.000000	83.559385
2492.000000	83.523285
2491.000000	83.387526
2490.000000	83.333366
2489.000000	83.184326
2488.000000	83.570879
2487.000000	83.499230
2486.000000	83.820667
2485.000000	83.720500
2484.000000	83.680922
2483.000000	83.387303
2482.000000	83.376574
2481.000000	83.422822
2480.000000	83.495196
2479.000000	83.231554
2478.000000	83.700481
2477.000000	83.398998
2476.000000	83.865635
2475.000000	83.898604
2474.000000	83.785013
2473.000000	83.754997
2472.000000	83.715807
2471.000000	84.089198
2470.000000	84.087426
2469.000000	83.712934
2468.000000	83.529378
2467.000000	83.407096
2466.000000	83.715038
2465.000000	83.817904
2464.000000	84.084314
2463.000000	84.055976
2462.000000	83.954469
2461.000000	84.033197
2460.000000	83.930365
2459.000000	83.956798
2458.000000	84.110442
2457.000000	84.316411
2456.000000	84.159828
2455.000000	83.902673
2454.000000	84.055942
2453.000000	84.086673
2452.000000	84.121078
2451.000000	83.623256
2450.000000	83.836223
2449.000000	83.949448
2448.000000	84.126902
2447.000000	84.272147
2446.000000	84.242235
2445.000000	84.254516
2444.000000	84.457216
2443.000000	84.147027
2442.000000	84.177758
2441.000000	84.479325
2440.000000	84.671532
2439.000000	84.422192
2438.000000	84.569397
2437.000000	84.626350
2436.000000	84.386212
2435.000000	84.635999
2434.000000	84.871980
2433.000000	84.652055
2432.000000	84.378520
2431.000000	84.349763
2430.000000	84.409165
2429.000000	84.570323
2428.000000	84.585903
2427.000000	84.581123
2426.000000	84.635638
2425.000000	84.780510
2424.000000	84.846734
2423.000000	84.562050
2422.000000	84.523050
2421.000000	84.683305
2420.000000	84.624239
2419.000000	84.744293
2418.000000	84.723616
2417.000000	84.730227
2416.000000	84.727245
2415.000000	84.563478
2414.000000	84.795354
2413.000000	84.822544
2412.000000	84.704786
2411.000000	84.771231
2410.000000	84.996108
2409.000000	85.297213
2408.000000	85.073507
2407.000000	84.736237
2406.000000	84.919639
2405.000000	85.024043
2404.000000	84.675709
2403.000000	84.652304
2402.000000	84.638824
2401.000000	84.749446
2400.000000	84.597631
2399.000000	84.866820
2398.000000	85.217536
2397.000000	85.239417
2396.000000	85.165952
2395.000000	85.130244
2394.000000	85.107375
2393.000000	85.101779
2392.000000	85.253055
2391.000000	85.012047
2390.000000	84.890378
2389.000000	85.180594
2388.000000	85.267929
2387.000000	84.979152
2386.000000	84.847089
2385.000000	84.862186
2384.000000	85.096022
2383.000000	85.277906
2382.000000	85.207715
2381.000000	85.350539
2380.000000	85.096652
2379.000000	84.944621
2378.000000	84.985698
2377.000000	85.020909
2376.000000	85.012534
2375.000000	85.040578
2374.000000	85.024002
2373.000000	84.859082
2372.000000	84.835111
2371.000000	84.966012
2370.000000	85.323585
2369.000000	85.282933
2368.000000	85.099859
2367.000000	84.975796
2366.000000	85.029448
2365.000000	85.148011
2364.000000	85.346900
2363.000000	85.365915
2362.000000	85.379345
2361.000000	85.357888
2360.000000	85.386469
2359.000000	85.358821
2358.000000	85.247962
2357.000000	85.108720
2356.000000	85.153864
2355.000000	85.228649
2354.000000	85.277740
2353.000000	85.463091
2352.000000	85.220814
2351.000000	84.980023
2350.000000	85.093860
2349.000000	85.170242
2348.000000	85.110066
2347.000000	85.245768
2346.000000	85.404403
2345.000000	85.560579
2344.000000	85.354655
2343.000000	85.388210
2342.000000	85.415115
2341.000000	85.347386
2340.000000	85.318214
2339.000000	85.390874
2338.000000	85.473540
2337.000000	85.401846
2336.000000	85.423452
2335.000000	85.523472
2334.000000	85.432380
2333.000000	85.415266
2332.000000	85.222068
2331.000000	85.422147
2330.000000	85.467264
2329.000000	85.424362
2328.000000	85.393665
2327.000000	85.254013
2326.000000	85.318971
2325.000000	85.649949
2324.000000	85.294846
2323.000000	85.292565
2322.000000	85.185822
2321.000000	85.156758
2320.000000	85.009631
2319.000000	85.078398
2318.000000	85.004484
2317.000000	84.998831
2316.000000	84.905851
2315.000000	84.980511
2314.000000	85.088492
2313.000000	85.117317
2312.000000	85.129287
2311.000000	85.036214
2310.000000	85.110468
2309.000000	85.012455
2308.000000	84.942294
2307.000000	84.946776
2306.000000	85.127065
2305.000000	84.948485
2304.000000	84.982392
2303.000000	84.899706
2302.000000	84.888823
2301.000000	84.975927
2300.000000	85.052082
2299.000000	85.058010
2298.000000	84.874758
2297.000000	84.894548
2296.000000	84.952205
2295.000000	85.075753
2294.000000	85.058015
2293.000000	85.077921
2292.000000	84.986287
2291.000000	85.069477
2290.000000	84.814070
2289.000000	84.921419
2288.000000	85.055966
2287.000000	85.089109
2286.000000	84.913479
2285.000000	84.947297
2284.000000	85.001163
2283.000000	84.730849
2282.000000	84.713882
2281.000000	84.914021
2280.000000	84.767109
2279.000000	84.631296
2278.000000	84.762309
2277.000000	84.846278
2276.000000	84.781084
2275.000000	84.813487
2274.000000	84.695288
2273.000000	84.777508
2272.000000	84.597702
2271.000000	84.661080
2270.000000	84.630086
2269.000000	84.695904
2268.000000	84.579614
2267.000000	84.479084
2266.000000	84.552504
2265.000000	84.628407
2264.000000	84.487395
2263.000000	84.553739
2262.000000	84.454869
2261.000000	84.522998
2260.000000	84.518082
2259.000000	84.506538
2258.000000	84.479735
2257.000000	84.499330
2256.000000	84.531989
2255.000000	84.533412
2254.000000	84.355943
2253.000000	84.549132
2252.000000	84.528006
2251.000000	84.371361
2250.000000	84.392292
2249.000000	84.427208
2248.000000	84.421668
2247.000000	84.400580
2246.000000	84.342696
2245.000000	84.353695
2244.000000	84.299373
2243.000000	84.358425
2242.000000	84.425538
2241.000000	84.393381
2240.000000	84.480115
2239.000000	84.437251
2238.000000	84.380732
2237.000000	84.356143
2236.000000	84.474947
2235.000000	84.357561
2234.000000	84.386568
2233.000000	84.413607
2232.000000	84.363454
2231.000000	84.495085
2230.000000	84.446477
2229.000000	84.420545
2228.000000	84.408367
2227.000000	84.280990
2226.000000	84.233681
2225.000000	84.430889
2224.000000	84.410327
2223.000000	84.378543
2222.000000	84.332202
2221.000000	84.385446
2220.000000	84.273453
2219.000000	84.260731
2218.000000	84.365412
2217.000000	84.345396
2216.000000	84.305774
2215.000000	84.407573
2214.000000	84.456158
2213.000000	84.520095
2212.000000	84.460293
2211.000000	84.458456
2210.000000	84.444513
2209.000000	84.604579
2208.000000	84.543919
2207.000000	84.545080
2206.000000	84.516818
2205.000000	84.643413
2204.000000	84.530984
2203.000000	84.631378
2202.000000	84.763395
2201.000000	84.820429
2200.000000	84.709237
2199.000000	84.814683
2198.000000	84.886046
2197.000000	84.915544
2196.000000	84.976244
2195.000000	84.918858
2194.000000	84.982642
2193.000000	84.969485
2192.000000	84.931909
2191.000000	85.159631
2190.000000	85.138730
2189.000000	85.123399
2188.000000	85.248371
2187.000000	85.326062
2186.000000	85.365924
2185.000000	85.443676
2184.000000	85.386114
2183.000000	85.336012
2182.000000	85.390279
2181.000000	85.498261
2180.000000	85.614568
2179.000000	85.511112
2178.000000	85.616652
2177.000000	85.670483
2176.000000	85.649312
2175.000000	85.589807
2174.000000	85.535649
2173.000000	85.599859
2172.000000	85.672763
2171.000000	85.676115
2170.000000	85.666444
2169.000000	85.710394
2168.000000	85.700603
2167.000000	85.734543
2166.000000	85.684277
2165.000000	85.748493
2164.000000	85.853906
2163.000000	86.036181
2162.000000	85.936681
2161.000000	85.837170
2160.000000	85.823513
2159.000000	85.746120
2158.000000	85.871548
2157.000000	85.944486
2156.000000	85.891734
2155.000000	85.884168
2154.000000	85.876952
2153.000000	85.927151
2152.000000	85.889633
2151.000000	85.905009
2150.000000	86.006081
2149.000000	85.988948
2148.000000	85.877265
2147.000000	85.935772
2146.000000	86.062174
2145.000000	86.050738
2144.000000	86.052661
2143.000000	86.015786
2142.000000	85.965122
2141.000000	86.054029
2140.000000	86.024453
2139.000000	86.008750
2138.000000	86.051055
2137.000000	85.992628
2136.000000	86.017040
2135.000000	86.050475
2134.000000	86.085228
2133.000000	86.020594
2132.000000	85.940587
2131.000000	85.992132
2130.000000	86.069954
2129.000000	86.135804
2128.000000	86.266815
2127.000000	86.265097
2126.000000	86.160072
2125.000000	86.191389
2124.000000	86.222738
2123.000000	86.227564
2122.000000	86.268468
2121.000000	86.161214
2120.000000	86.174799
2119.000000	86.336112
2118.000000	86.338893
2117.000000	86.295385
2116.000000	86.394434
2115.000000	86.387698
2114.000000	86.286362
2113.000000	86.330906
2112.000000	86.326530
2111.000000	86.264365
2110.000000	86.210703
2109.000000	86.177908
2108.000000	86.226680
2107.000000	86.257476
2106.000000	86.201339
2105.000000	86.152182
2104.000000	86.191875
2103.000000	86.222389
2102.000000	86.190264
2101.000000	86.215886
2100.000000	86.187224
2099.000000	86.139512
2098.000000	86.188744
2097.000000	86.222794
2096.000000	86.185927
2095.000000	86.245257
2094.000000	86.237350
2093.000000	86.266643
2092.000000	86.295160
2091.000000	86.173187
2090.000000	86.145236
2089.000000	86.221457
2088.000000	86.235703
2087.000000	86.194903
2086.000000	86.169312
2085.000000	86.217097
2084.000000	86.278337
2083.000000	86.231571
2082.000000	86.197314
2081.000000	86.227226
2080.000000	86.217899
2079.000000	86.131686
2078.000000	86.132077
2077.000000	86.158240
2076.000000	86.227990
2075.000000	86.292297
2074.000000	86.288243
2073.000000	86.275354
2072.000000	86.249283
2071.000000	86.250983
2070.000000	86.181895
2069.000000	86.150324
2068.000000	86.272216
2067.000000	86.210317
2066.000000	86.319887
2065.000000	86.263928
2064.000000	86.217709
2063.000000	86.247852
2062.000000	86.198209
2061.000000	86.199520
2060.000000	86.268906
2059.000000	86.183390
2058.000000	86.201607
2057.000000	86.288813
2056.000000	86.247767
2055.000000	86.142712
2054.000000	86.235038
2053.000000	86.154201
2052.000000	86.173805
2051.000000	86.268835
2050.000000	86.308026
2049.000000	86.284559
2048.000000	86.227218
2047.000000	86.229063
2046.000000	86.294995
2045.000000	86.396729
2044.000000	86.350856
2043.000000	86.305324
2042.000000	86.343640
2041.000000	86.355286
2040.000000	86.356485
2039.000000	86.331569
2038.000000	86.408389
2037.000000	86.368185
2036.000000	86.432302
2035.000000	86.320928
2034.000000	86.402726
2033.000000	86.378783
2032.000000	86.392762
2031.000000	86.267868
2030.000000	86.251625
2029.000000	86.192190
2028.000000	86.223979
2027.000000	86.181555
2026.000000	86.220256
2025.000000	86.257358
2024.000000	86.197172
2023.000000	86.208798
2022.000000	86.179293
2021.000000	86.227925
2020.000000	86.214073
2019.000000	86.177345
2018.000000	86.243052
2017.000000	86.258301
2016.000000	86.231026
2015.000000	86.199672
2014.000000	86.199558
2013.000000	86.198657
2012.000000	86.150437
2011.000000	86.172453
2010.000000	86.195281
2009.000000	86.191140
2008.000000	86.250904
2007.000000	86.185641
2006.000000	86.220747
2005.000000	86.184941
2004.000000	86.251431
2003.000000	86.243909
2002.000000	86.221476
2001.000000	86.182639
2000.000000	86.183735
1999.000000	86.205657
1998.000000	86.201796
1997.000000	86.251373
1996.000000	86.222992
1995.000000	86.207076
1994.000000	86.235967
1993.000000	86.218125
1992.000000	86.209571
1991.000000	86.231183
1990.000000	86.253617
1989.000000	86.251746
1988.000000	86.206694
1987.000000	86.254067
1986.000000	86.241966
1985.000000	86.222979
1984.000000	86.261876
1983.000000	86.268254
1982.000000	86.281983
1981.000000	86.244114
1980.000000	86.221913
1979.000000	86.220385
1978.000000	86.246734
1977.000000	86.266824
1976.000000	86.281324
1975.000000	86.256126
1974.000000	86.279975
1973.000000	86.296504
1972.000000	86.288044
1971.000000	86.246890
1970.000000	86.262269
1969.000000	86.316461
1968.000000	86.261537
1967.000000	86.267918
1966.000000	86.257635
1965.000000	86.264799
1964.000000	86.287282
1963.000000	86.283904
1962.000000	86.288162
1961.000000	86.291690
1960.000000	86.317316
1959.000000	86.238933
1958.000000	86.246786
1957.000000	86.280097
1956.000000	86.310741
1955.000000	86.320542
1954.000000	86.276978
1953.000000	86.291061
1952.000000	86.308948
1951.000000	86.303424
1950.000000	86.334182
1949.000000	86.330328
1948.000000	86.328323
1947.000000	86.327207
1946.000000	86.330536
1945.000000	86.353745
1944.000000	86.353576
1943.000000	86.340230
1942.000000	86.345625
1941.000000	86.321040
1940.000000	86.308354
1939.000000	86.299821
1938.000000	86.358340
1937.000000	86.319120
1936.000000	86.286208
1935.000000	86.287279
1934.000000	86.347804
1933.000000	86.378077
1932.000000	86.336709
1931.000000	86.369563
1930.000000	86.349570
1929.000000	86.332882
1928.000000	86.313455
1927.000000	86.322653
1926.000000	86.370085
1925.000000	86.326899
1924.000000	86.365270
1923.000000	86.402261
1922.000000	86.436352
1921.000000	86.477645
1920.000000	86.486616
1919.000000	86.525030
1918.000000	86.499880
1917.000000	86.511792
1916.000000	86.536893
1915.000000	86.502505
1914.000000	86.535610
1913.000000	86.545622
1912.000000	86.561537
1911.000000	86.510230
1910.000000	86.371748
1909.000000	86.341165
1908.000000	86.418220
1907.000000	86.424888
1906.000000	86.440959
1905.000000	86.429301
1904.000000	86.409111
1903.000000	86.402600
1902.000000	86.362333
1901.000000	86.364910
1900.000000	86.399430
1899.000000	86.386396
1898.000000	86.374331
1897.000000	86.420209
1896.000000	86.391453
1895.000000	86.365376
1894.000000	86.408372
1893.000000	86.420388
1892.000000	86.420717
1891.000000	86.444326
1890.000000	86.450414
1889.000000	86.430951
1888.000000	86.416976
1887.000000	86.404664
1886.000000	86.414603
1885.000000	86.397822
1884.000000	86.420066
1883.000000	86.461758
1882.000000	86.451084
1881.000000	86.447734
1880.000000	86.468111
1879.000000	86.458275
1878.000000	86.451159
1877.000000	86.433879
1876.000000	86.422473
1875.000000	86.440701
1874.000000	86.459716
1873.000000	86.468816
1872.000000	86.448219
1871.000000	86.469661
1870.000000	86.490968
1869.000000	86.431878
1868.000000	86.415710
1867.000000	86.465487
1866.000000	86.479487
1865.000000	86.452500
1864.000000	86.441106
1863.000000	86.430890
1862.000000	86.444684
1861.000000	86.479066
1860.000000	86.467713
1859.000000	86.495470
1858.000000	86.490783
1857.000000	86.490162
1856.000000	86.487255
1855.000000	86.509888
1854.000000	86.507073
1853.000000	86.485666
1852.000000	86.465645
1851.000000	86.463377
1850.000000	86.508130
1849.000000	86.530174
1848.000000	86.506893
1847.000000	86.510280
1846.000000	86.486060
1845.000000	86.505468
1844.000000	86.492935
1843.000000	86.521214
1842.000000	86.493765
1841.000000	86.531014
1840.000000	86.526374
1839.000000	86.538371
1838.000000	86.524409
1837.000000	86.518433
1836.000000	86.533878
1835.000000	86.506336
1834.000000	86.506819
1833.000000	86.615218
1832.000000	86.615090
1831.000000	86.620277
1830.000000	86.520365
1829.000000	86.621627
1828.000000	86.628547
1827.000000	86.642285
1826.000000	86.668013
1825.000000	86.644350
1824.000000	86.652938
1823.000000	86.583651
1822.000000	86.544296
1821.000000	86.549415
1820.000000	86.548244
1819.000000	86.535425
1818.000000	86.550932
1817.000000	86.541487
1816.000000	86.560883
1815.000000	86.559668
1814.000000	86.568214
1813.000000	86.563710
1812.000000	86.573402
1811.000000	86.573932
1810.000000	86.570013
1809.000000	86.568055
1808.000000	86.584204
1807.000000	86.587228
1806.000000	86.611996
1805.000000	86.593994
1804.000000	86.622297
1803.000000	86.622508
1802.000000	86.602400
1801.000000	86.610862
1800.000000	86.614031
1799.000000	86.626284
1798.000000	86.618982
1797.000000	86.619427
1796.000000	86.637022
1795.000000	86.622925
1794.000000	86.633381
1793.000000	86.637054
1792.000000	86.639794
1791.000000	86.660501
1790.000000	86.657871
1789.000000	86.640285
1788.000000	86.638570
1787.000000	86.663212
1786.000000	86.645348
1785.000000	86.668458
1784.000000	86.684837
1783.000000	86.679084
1782.000000	86.648942
1781.000000	86.671478
1780.000000	86.673301
1779.000000	86.681562
1778.000000	86.704942
1777.000000	86.679796
1776.000000	86.689546
1775.000000	86.699634
1774.000000	86.696653
1773.000000	86.683699
1772.000000	86.715550
1771.000000	86.730088
1770.000000	86.705452
1769.000000	86.714172
1768.000000	86.695383
1767.000000	86.701196
1766.000000	86.698160
1765.000000	86.718143
1764.000000	86.698390
1763.000000	86.745505
1762.000000	86.722844
1761.000000	86.720715
1760.000000	86.732128
1759.000000	86.734081
1758.000000	86.716771
1757.000000	86.723139
1756.000000	86.749220
1755.000000	86.728985
1754.000000	86.721694
1753.000000	86.751012
1752.000000	86.754180
1751.000000	86.743803
1750.000000	86.747235
1749.000000	86.758146
1748.000000	86.767635
1747.000000	86.773431
1746.000000	86.741268
1745.000000	86.764503
1744.000000	86.764820
1743.000000	86.764544
1742.000000	86.760524
1741.000000	86.765206
1740.000000	86.767437
1739.000000	86.760596
1738.000000	86.777849
1737.000000	86.765862
1736.000000	86.759344
1735.000000	86.784078
1734.000000	86.783258
1733.000000	86.771908
1732.000000	86.785833
1731.000000	86.804446
1730.000000	86.796856
1729.000000	86.784683
1728.000000	86.805585
1727.000000	86.799828
1726.000000	86.793646
1725.000000	86.788541
1724.000000	86.801823
1723.000000	86.794795
1722.000000	86.796714
1721.000000	86.805657
1720.000000	86.780681
1719.000000	86.804792
1718.000000	86.805808
1717.000000	86.783385
1716.000000	86.801172
1715.000000	86.798993
1714.000000	86.812487
1713.000000	86.807714
1712.000000	86.809276
1711.000000	86.815412
1710.000000	86.827624
1709.000000	86.801698
1708.000000	86.806478
1707.000000	86.803732
1706.000000	86.807936
1705.000000	86.813564
1704.000000	86.802888
1703.000000	86.822980
1702.000000	86.817264
1701.000000	86.815801
1700.000000	86.811675
1699.000000	86.798007
1698.000000	86.802287
1697.000000	86.804011
1696.000000	86.826900
1695.000000	86.813559
1694.000000	86.805373
1693.000000	86.813034
1692.000000	86.802910
1691.000000	86.795361
1690.000000	86.806933
1689.000000	86.808961
1688.000000	86.797984
1687.000000	86.807460
1686.000000	86.802299
1685.000000	86.802081
1684.000000	86.804617
1683.000000	86.812849
1682.000000	86.811230
1681.000000	86.810451
1680.000000	86.798945
1679.000000	86.788142
1678.000000	86.793233
1677.000000	86.800593
1676.000000	86.798763
1675.000000	86.801195
1674.000000	86.778085
1673.000000	86.771272
1672.000000	86.768683
1671.000000	86.774128
1670.000000	86.785919
1669.000000	86.778699
1668.000000	86.721796
1667.000000	86.727597
1666.000000	86.776222
1665.000000	86.836906
1664.000000	86.827453
1663.000000	86.840905
1662.000000	86.839690
