PE UV       SUBTECH     SPECTRUM    ASCII       PEDS        4.00        
   -1
Sample432.Sample.asc
10/02/23
13:44:50.00
10/02/23
13:44:50.00
Analyst
vetro indesit nudo
300.000000
1
Lambda 950
950N6032301
PerkinElmer UV WinLab 5.1.5.0637 / 1.61.00 Lambda 900

0
0
3350/servo 860.8/2
0
0
UV/VIS
1
1
1
RBeamAtt,SBeamAtt,150mm sphere / downward view
0
0
0
0
Program
Program
3350/servo 860.8/2
3350/1 860.8/1
3350/1 860.8/1
0
1
 
 
 
0
 
860.8
319.2
860.8
Front
100
 
S:100 R:100
 
0
0
0
 
0
 
 
 
0
 
 
0
0
0
0
0
 
 
 
 
0
0
#HDR
-1
-1
#GR
nm
%T
1.0
0.0
2500.000000
-1.000000
2201
8
9.827548
5.446681
#DATA
2500.000000	7.152560
2499.000000	7.408029
2498.000000	7.708099
2497.000000	6.526061
2496.000000	8.376548
2495.000000	6.922494
2494.000000	7.943591
2493.000000	6.822549
2492.000000	7.714649
2491.000000	7.014503
2490.000000	7.905625
2489.000000	6.812706
2488.000000	7.795368
2487.000000	6.911240
2486.000000	7.177133
2485.000000	7.236697
2484.000000	7.024810
2483.000000	7.385353
2482.000000	7.609867
2481.000000	6.626949
2480.000000	7.404579
2479.000000	7.129823
2478.000000	7.652025
2477.000000	7.259169
2476.000000	7.392310
2475.000000	7.235059
2474.000000	7.758815
2473.000000	7.103702
2472.000000	7.432535
2471.000000	7.398747
2470.000000	7.987535
2469.000000	7.114628
2468.000000	7.424259
2467.000000	7.045497
2466.000000	7.436573
2465.000000	7.464407
2464.000000	7.727907
2463.000000	6.972908
2462.000000	7.444000
2461.000000	6.979319
2460.000000	8.080564
2459.000000	7.075704
2458.000000	7.328585
2457.000000	7.432190
2456.000000	7.812577
2455.000000	6.929670
2454.000000	7.602810
2453.000000	7.287672
2452.000000	7.466249
2451.000000	7.119849
2450.000000	7.864814
2449.000000	7.695754
2448.000000	7.020551
2447.000000	7.061621
2446.000000	7.167058
2445.000000	7.070148
2444.000000	7.325500
2443.000000	7.359907
2442.000000	7.432664
2441.000000	7.537471
2440.000000	7.831787
2439.000000	7.262911
2438.000000	7.551966
2437.000000	7.338733
2436.000000	7.176303
2435.000000	7.050493
2434.000000	7.309794
2433.000000	7.121488
2432.000000	7.595672
2431.000000	7.342427
2430.000000	7.284719
2429.000000	7.343761
2428.000000	7.737898
2427.000000	7.138992
2426.000000	7.339109
2425.000000	7.200375
2424.000000	7.574391
2423.000000	7.557231
2422.000000	7.266224
2421.000000	7.408311
2420.000000	7.271289
2419.000000	7.103080
2418.000000	7.393767
2417.000000	7.471437
2416.000000	7.712650
2415.000000	7.097174
2414.000000	7.131538
2413.000000	7.460918
2412.000000	7.538197
2411.000000	7.377282
2410.000000	7.385776
2409.000000	7.148548
2408.000000	7.296304
2407.000000	7.554518
2406.000000	7.350741
2405.000000	7.016818
2404.000000	7.304213
2403.000000	7.418711
2402.000000	7.270643
2401.000000	7.237297
2400.000000	7.510729
2399.000000	7.439644
2398.000000	7.182221
2397.000000	7.109455
2396.000000	7.378791
2395.000000	7.347971
2394.000000	7.426278
2393.000000	7.419909
2392.000000	7.386886
2391.000000	7.467047
2390.000000	7.480037
2389.000000	7.415679
2388.000000	7.261274
2387.000000	7.317385
2386.000000	7.404318
2385.000000	7.316779
2384.000000	7.616014
2383.000000	7.492851
2382.000000	7.336063
2381.000000	7.396400
2380.000000	7.716431
2379.000000	7.772997
2378.000000	7.561757
2377.000000	7.553362
2376.000000	7.473585
2375.000000	7.500677
2374.000000	7.410090
2373.000000	7.323370
2372.000000	7.367220
2371.000000	7.466757
2370.000000	7.490305
2369.000000	7.539111
2368.000000	7.556741
2367.000000	7.431814
2366.000000	7.202922
2365.000000	7.340124
2364.000000	7.190316
2363.000000	7.223351
2362.000000	7.253411
2361.000000	7.356927
2360.000000	7.467859
2359.000000	7.444412
2358.000000	7.425457
2357.000000	7.524079
2356.000000	7.348371
2355.000000	7.367608
2354.000000	7.395512
2353.000000	7.469373
2352.000000	7.345813
2351.000000	7.262202
2350.000000	7.381206
2349.000000	7.591095
2348.000000	7.574845
2347.000000	7.330563
2346.000000	7.158049
2345.000000	7.521118
2344.000000	7.319739
2343.000000	7.458887
2342.000000	7.246849
2341.000000	7.423527
2340.000000	7.232111
2339.000000	7.635606
2338.000000	7.575208
2337.000000	7.535378
2336.000000	7.409387
2335.000000	7.471603
2334.000000	7.331003
2333.000000	7.440895
2332.000000	7.547561
2331.000000	7.328343
2330.000000	7.285673
2329.000000	7.461533
2328.000000	7.464322
2327.000000	7.546750
2326.000000	7.331671
2325.000000	7.572833
2324.000000	7.422212
2323.000000	7.215854
2322.000000	7.290987
2321.000000	7.668488
2320.000000	7.389133
2319.000000	7.586519
2318.000000	7.508389
2317.000000	7.363448
2316.000000	7.227069
2315.000000	7.575783
2314.000000	7.177126
2313.000000	7.360095
2312.000000	7.449628
2311.000000	7.613294
2310.000000	7.143513
2309.000000	7.339366
2308.000000	7.284866
2307.000000	7.411351
2306.000000	7.427304
2305.000000	7.602468
2304.000000	7.299319
2303.000000	7.590862
2302.000000	7.256866
2301.000000	7.339829
2300.000000	7.328964
2299.000000	7.445820
2298.000000	7.199307
2297.000000	7.633409
2296.000000	7.376197
2295.000000	7.409961
2294.000000	7.198019
2293.000000	7.486982
2292.000000	7.122718
2291.000000	7.452890
2290.000000	7.538171
2289.000000	7.511805
2288.000000	7.167281
2287.000000	7.433436
2286.000000	7.368373
2285.000000	7.458827
2284.000000	7.190119
2283.000000	7.284664
2282.000000	7.326015
2281.000000	7.573713
2280.000000	7.311443
2279.000000	7.413404
2278.000000	7.395191
2277.000000	7.596389
2276.000000	7.246170
2275.000000	7.465301
2274.000000	7.369079
2273.000000	7.383545
2272.000000	7.284544
2271.000000	7.579326
2270.000000	7.228277
2269.000000	7.346396
2268.000000	7.324676
2267.000000	7.317903
2266.000000	7.409933
2265.000000	7.431617
2264.000000	7.357208
2263.000000	7.410795
2262.000000	7.125751
2261.000000	7.390891
2260.000000	7.287132
2259.000000	7.363405
2258.000000	7.138810
2257.000000	7.434355
2256.000000	7.297954
2255.000000	7.443085
2254.000000	7.175347
2253.000000	7.429543
2252.000000	7.353482
2251.000000	7.569072
2250.000000	7.310045
2249.000000	7.447232
2248.000000	7.245004
2247.000000	7.437565
2246.000000	7.262208
2245.000000	7.470881
2244.000000	7.179820
2243.000000	7.437904
2242.000000	7.297099
2241.000000	7.533980
2240.000000	7.445202
2239.000000	7.464204
2238.000000	7.094986
2237.000000	7.358162
2236.000000	7.400781
2235.000000	7.431654
2234.000000	7.206924
2233.000000	7.454715
2232.000000	7.244081
2231.000000	7.475742
2230.000000	7.308583
2229.000000	7.427934
2228.000000	7.395254
2227.000000	7.417830
2226.000000	7.306341
2225.000000	7.405475
2224.000000	7.326594
2223.000000	7.473843
2222.000000	7.331033
2221.000000	7.459972
2220.000000	7.196367
2219.000000	7.399034
2218.000000	7.364687
2217.000000	7.445001
2216.000000	7.365271
2215.000000	7.521738
2214.000000	7.291906
2213.000000	7.415638
2212.000000	7.274677
2211.000000	7.363707
2210.000000	7.206766
2209.000000	7.467667
2208.000000	7.313097
2207.000000	7.354175
2206.000000	7.403299
2205.000000	7.366933
2204.000000	7.324382
2203.000000	7.455410
2202.000000	7.328129
2201.000000	7.433344
2200.000000	7.340168
2199.000000	7.442083
2198.000000	7.329302
2197.000000	7.410909
2196.000000	7.362706
2195.000000	7.414504
2194.000000	7.462778
2193.000000	7.455810
2192.000000	7.422918
2191.000000	7.344139
2190.000000	7.406602
2189.000000	7.559272
2188.000000	7.485672
2187.000000	7.538111
2186.000000	7.458236
2185.000000	7.515945
2184.000000	7.422020
2183.000000	7.522966
2182.000000	7.506739
2181.000000	7.577628
2180.000000	7.717544
2179.000000	7.531427
2178.000000	7.452382
2177.000000	7.512764
2176.000000	7.515662
2175.000000	7.587071
2174.000000	7.571400
2173.000000	7.675551
2172.000000	7.510204
2171.000000	7.551578
2170.000000	7.509557
2169.000000	7.592773
2168.000000	7.445414
2167.000000	7.596125
2166.000000	7.601431
2165.000000	7.659625
2164.000000	7.544408
2163.000000	7.693371
2162.000000	7.620329
2161.000000	7.529900
2160.000000	7.628638
2159.000000	7.555734
2158.000000	7.404026
2157.000000	7.487465
2156.000000	7.603284
2155.000000	7.567085
2154.000000	7.478188
2153.000000	7.614443
2152.000000	7.507272
2151.000000	7.540158
2150.000000	7.480107
2149.000000	7.504165
2148.000000	7.569479
2147.000000	7.619908
2146.000000	7.623750
2145.000000	7.594178
2144.000000	7.583919
2143.000000	7.548027
2142.000000	7.587748
2141.000000	7.597654
2140.000000	7.562199
2139.000000	7.605927
2138.000000	7.547397
2137.000000	7.557466
2136.000000	7.619949
2135.000000	7.499023
2134.000000	7.475958
2133.000000	7.497349
2132.000000	7.470861
2131.000000	7.519000
2130.000000	7.571833
2129.000000	7.505639
2128.000000	7.546272
2127.000000	7.505962
2126.000000	7.527708
2125.000000	7.520253
2124.000000	7.471585
2123.000000	7.457803
2122.000000	7.519876
2121.000000	7.622456
2120.000000	7.580468
2119.000000	7.461340
2118.000000	7.607458
2117.000000	7.635417
2116.000000	7.535322
2115.000000	7.600613
2114.000000	7.587805
2113.000000	7.508772
2112.000000	7.631284
2111.000000	7.550747
2110.000000	7.535805
2109.000000	7.528652
2108.000000	7.636796
2107.000000	7.642639
2106.000000	7.515629
2105.000000	7.468970
2104.000000	7.566926
2103.000000	7.570646
2102.000000	7.529537
2101.000000	7.456477
2100.000000	7.590931
2099.000000	7.596947
2098.000000	7.634776
2097.000000	7.500759
2096.000000	7.547313
2095.000000	7.567050
2094.000000	7.598418
2093.000000	7.577019
2092.000000	7.622496
2091.000000	7.449754
2090.000000	7.514788
2089.000000	7.563273
2088.000000	7.528671
2087.000000	7.473706
2086.000000	7.650094
2085.000000	7.575064
2084.000000	7.592506
2083.000000	7.560556
2082.000000	7.606853
2081.000000	7.539798
2080.000000	7.579822
2079.000000	7.485752
2078.000000	7.623661
2077.000000	7.594266
2076.000000	7.664608
2075.000000	7.482850
2074.000000	7.508414
2073.000000	7.548701
2072.000000	7.515363
2071.000000	7.618555
2070.000000	7.602417
2069.000000	7.495607
2068.000000	7.535142
2067.000000	7.569923
2066.000000	7.531889
2065.000000	7.511037
2064.000000	7.589050
2063.000000	7.578980
2062.000000	7.541553
2061.000000	7.538335
2060.000000	7.592757
2059.000000	7.541773
2058.000000	7.585708
2057.000000	7.547093
2056.000000	7.561761
2055.000000	7.525163
2054.000000	7.624249
2053.000000	7.534293
2052.000000	7.578311
2051.000000	7.418808
2050.000000	7.577296
2049.000000	7.606132
2048.000000	7.544548
2047.000000	7.473637
2046.000000	7.574500
2045.000000	7.543742
2044.000000	7.556448
2043.000000	7.519848
2042.000000	7.605296
2041.000000	7.448389
2040.000000	7.564992
2039.000000	7.526730
2038.000000	7.518750
2037.000000	7.462937
2036.000000	7.610815
2035.000000	7.512608
2034.000000	7.596084
2033.000000	7.499911
2032.000000	7.566157
2031.000000	7.499790
2030.000000	7.600487
2029.000000	7.578203
2028.000000	7.578971
2027.000000	7.567910
2026.000000	7.536955
2025.000000	7.546612
2024.000000	7.627135
2023.000000	7.562922
2022.000000	7.474498
2021.000000	7.471157
2020.000000	7.531770
2019.000000	7.506003
2018.000000	7.586832
2017.000000	7.552969
2016.000000	7.603024
2015.000000	7.500321
2014.000000	7.553421
2013.000000	7.503962
2012.000000	7.581417
2011.000000	7.507666
2010.000000	7.616942
2009.000000	7.531184
2008.000000	7.549435
2007.000000	7.513681
2006.000000	7.602370
2005.000000	7.500587
2004.000000	7.523348
2003.000000	7.488127
2002.000000	7.604523
2001.000000	7.533434
2000.000000	7.583757
1999.000000	7.551428
1998.000000	7.525318
1997.000000	7.530721
1996.000000	7.542611
1995.000000	7.569381
1994.000000	7.540827
1993.000000	7.502929
1992.000000	7.594872
1991.000000	7.486296
1990.000000	7.554284
1989.000000	7.534549
1988.000000	7.571359
1987.000000	7.512489
1986.000000	7.593909
1985.000000	7.564630
1984.000000	7.574987
1983.000000	7.550953
1982.000000	7.574463
1981.000000	7.523779
1980.000000	7.550591
1979.000000	7.577387
1978.000000	7.566008
1977.000000	7.564096
1976.000000	7.550581
1975.000000	7.551687
1974.000000	7.568966
1973.000000	7.561112
1972.000000	7.616153
1971.000000	7.588892
1970.000000	7.576905
1969.000000	7.525621
1968.000000	7.597518
1967.000000	7.594789
1966.000000	7.643766
1965.000000	7.544442
1964.000000	7.555058
1963.000000	7.581989
1962.000000	7.614403
1961.000000	7.589765
1960.000000	7.606920
1959.000000	7.558701
1958.000000	7.595626
1957.000000	7.569654
1956.000000	7.599411
1955.000000	7.592517
1954.000000	7.627357
1953.000000	7.619557
1952.000000	7.624834
1951.000000	7.598393
1950.000000	7.639529
1949.000000	7.644832
1948.000000	7.619402
1947.000000	7.620619
1946.000000	7.656980
1945.000000	7.584669
1944.000000	7.611672
1943.000000	7.607254
1942.000000	7.667386
1941.000000	7.664764
1940.000000	7.677563
1939.000000	7.632779
1938.000000	7.669435
1937.000000	7.622098
1936.000000	7.633854
1935.000000	7.632867
1934.000000	7.640428
1933.000000	7.621514
1932.000000	7.661507
1931.000000	7.654145
1930.000000	7.650090
1929.000000	7.635818
1928.000000	7.671853
1927.000000	7.600281
1926.000000	7.654128
1925.000000	7.638955
1924.000000	7.648313
1923.000000	7.639587
1922.000000	7.612247
1921.000000	7.649969
1920.000000	7.680876
1919.000000	7.639482
1918.000000	7.620890
1917.000000	7.574081
1916.000000	7.564876
1915.000000	7.601289
1914.000000	7.647319
1913.000000	7.609607
1912.000000	7.595507
1911.000000	7.608740
1910.000000	7.624872
1909.000000	7.623714
1908.000000	7.624669
1907.000000	7.615552
1906.000000	7.654219
1905.000000	7.598072
1904.000000	7.618318
1903.000000	7.625436
1902.000000	7.633580
1901.000000	7.607296
1900.000000	7.614163
1899.000000	7.588472
1898.000000	7.575331
1897.000000	7.581700
1896.000000	7.636360
1895.000000	7.628610
1894.000000	7.616110
1893.000000	7.578835
1892.000000	7.599759
1891.000000	7.662479
1890.000000	7.633983
1889.000000	7.629126
1888.000000	7.615060
1887.000000	7.615358
1886.000000	7.665713
1885.000000	7.657249
1884.000000	7.652606
1883.000000	7.688621
1882.000000	7.694264
1881.000000	7.681144
1880.000000	7.664739
1879.000000	7.690283
1878.000000	7.684189
1877.000000	7.660553
1876.000000	7.676469
1875.000000	7.665611
1874.000000	7.631463
1873.000000	7.656377
1872.000000	7.656897
1871.000000	7.645113
1870.000000	7.622741
1869.000000	7.645973
1868.000000	7.628269
1867.000000	7.648640
1866.000000	7.650020
1865.000000	7.613005
1864.000000	7.600477
1863.000000	7.620786
1862.000000	7.617081
1861.000000	7.618614
1860.000000	7.600956
1859.000000	7.636430
1858.000000	7.639858
1857.000000	7.623779
1856.000000	7.611174
1855.000000	7.629246
1854.000000	7.638477
1853.000000	7.628086
1852.000000	7.656841
1851.000000	7.655585
1850.000000	7.633337
1849.000000	7.676752
1848.000000	7.609304
1847.000000	7.634459
1846.000000	7.653496
1845.000000	7.680953
1844.000000	7.636379
1843.000000	7.669811
1842.000000	7.634019
1841.000000	7.631637
1840.000000	7.642428
1839.000000	7.633171
1838.000000	7.618359
1837.000000	7.666514
1836.000000	7.616721
1835.000000	7.627973
1834.000000	7.603287
1833.000000	7.625447
1832.000000	7.631695
1831.000000	7.644696
1830.000000	7.595870
1829.000000	7.643083
1828.000000	7.602808
1827.000000	7.616603
1826.000000	7.629519
1825.000000	7.634411
1824.000000	7.611058
1823.000000	7.622744
1822.000000	7.604123
1821.000000	7.627980
1820.000000	7.625047
1819.000000	7.642170
1818.000000	7.622403
1817.000000	7.640590
1816.000000	7.640569
1815.000000	7.640781
1814.000000	7.618490
1813.000000	7.646990
1812.000000	7.639292
1811.000000	7.649641
1810.000000	7.629264
1809.000000	7.650810
1808.000000	7.605162
1807.000000	7.669333
1806.000000	7.618224
1805.000000	7.648860
1804.000000	7.645357
1803.000000	7.655041
1802.000000	7.641908
1801.000000	7.676025
1800.000000	7.624511
1799.000000	7.631282
1798.000000	7.624483
1797.000000	7.677020
1796.000000	7.660853
1795.000000	7.685689
1794.000000	7.661832
1793.000000	7.670800
1792.000000	7.640276
1791.000000	7.693355
1790.000000	7.667177
1789.000000	7.693883
1788.000000	7.676131
1787.000000	7.663424
1786.000000	7.664584
1785.000000	7.686948
1784.000000	7.685923
1783.000000	7.678339
1782.000000	7.661402
1781.000000	7.696944
1780.000000	7.679114
1779.000000	7.726877
1778.000000	7.661740
1777.000000	7.703745
1776.000000	7.706731
1775.000000	7.709895
1774.000000	7.674960
1773.000000	7.710389
1772.000000	7.670263
1771.000000	7.688764
1770.000000	7.695014
1769.000000	7.717502
1768.000000	7.638136
1767.000000	7.706889
1766.000000	7.682204
1765.000000	7.704754
1764.000000	7.678098
1763.000000	7.720060
1762.000000	7.661064
1761.000000	7.696545
1760.000000	7.703857
1759.000000	7.700549
1758.000000	7.706748
1757.000000	7.701310
1756.000000	7.698197
1755.000000	7.734676
1754.000000	7.712471
1753.000000	7.702238
1752.000000	7.680666
1751.000000	7.701160
1750.000000	7.706965
1749.000000	7.718780
1748.000000	7.712660
1747.000000	7.745378
1746.000000	7.697352
1745.000000	7.732431
1744.000000	7.673973
1743.000000	7.715034
1742.000000	7.698763
1741.000000	7.704463
1740.000000	7.693876
1739.000000	7.731986
1738.000000	7.709540
1737.000000	7.718650
1736.000000	7.700702
1735.000000	7.734956
1734.000000	7.690075
1733.000000	7.711248
1732.000000	7.715467
1731.000000	7.704262
1730.000000	7.705181
1729.000000	7.722409
1728.000000	7.731978
1727.000000	7.727287
1726.000000	7.694027
1725.000000	7.748181
1724.000000	7.712847
1723.000000	7.712586
1722.000000	7.702225
1721.000000	7.738981
1720.000000	7.706497
1719.000000	7.713006
1718.000000	7.719560
1717.000000	7.745188
1716.000000	7.684478
1715.000000	7.716665
1714.000000	7.707407
1713.000000	7.707634
1712.000000	7.699081
1711.000000	7.712696
1710.000000	7.702807
1709.000000	7.707910
1708.000000	7.701056
1707.000000	7.726029
1706.000000	7.718593
1705.000000	7.709495
1704.000000	7.712322
1703.000000	7.740467
1702.000000	7.722362
1701.000000	7.741750
1700.000000	7.716201
1699.000000	7.743984
1698.000000	7.727193
1697.000000	7.719388
1696.000000	7.704729
1695.000000	7.721298
1694.000000	7.701531
1693.000000	7.734404
1692.000000	7.730595
1691.000000	7.743001
1690.000000	7.724819
1689.000000	7.751072
1688.000000	7.728210
1687.000000	7.724841
1686.000000	7.720405
1685.000000	7.736112
1684.000000	7.725609
1683.000000	7.731910
1682.000000	7.712617
1681.000000	7.743047
1680.000000	7.731129
1679.000000	7.752706
1678.000000	7.742105
1677.000000	7.745265
1676.000000	7.742339
1675.000000	7.749541
1674.000000	7.723478
1673.000000	7.742649
1672.000000	7.726924
1671.000000	7.746819
1670.000000	7.717308
1669.000000	7.712509
1668.000000	7.712735
1667.000000	7.700135
1666.000000	7.709713
1665.000000	7.716215
1664.000000	7.737567
1663.000000	7.728883
1662.000000	7.723708
1661.000000	7.723877
1660.000000	7.718213
1659.000000	7.697105
1658.000000	7.708980
1657.000000	7.708513
1656.000000	7.711542
1655.000000	7.711564
1654.000000	7.705868
1653.000000	7.701212
1652.000000	7.716334
1651.000000	7.713116
1650.000000	7.706304
1649.000000	7.707299
1648.000000	7.709204
1647.000000	7.712497
1646.000000	7.712211
1645.000000	7.703427
1644.000000	7.709394
1643.000000	7.725839
1642.000000	7.721206
1641.000000	7.704166
1640.000000	7.708273
1639.000000	7.712099
1638.000000	7.718611
1637.000000	7.725146
1636.000000	7.723606
1635.000000	7.718848
1634.000000	7.714912
1633.000000	7.719828
1632.000000	7.723147
1631.000000	7.724802
1630.000000	7.712429
1629.000000	7.713478
1628.000000	7.712091
1627.000000	7.728657
1626.000000	7.721418
1625.000000	7.721675
1624.000000	7.716361
