PE UV       SUBTECH     SPECTRUM    ASCII       PEDS        4.00        
   -1
Sample612.Sample.asc
10/11/26
11:26:56.00
10/11/26
11:26:56.00
Analyst
Specchio solarlux su Pilkington Microwhite 0.95 by Reflex
300.000000
1
Lambda 950
950N6032301
PerkinElmer UV WinLab 5.1.5.0637 / 1.61.00 Lambda 900

0
0
3350/servo 860.8/2
0
0
UV/VIS
1
1
1
RBeamAtt,SBeamAtt,150mm sphere / downward view
0
0
0
0
Program
Program
3350/servo 860.8/2
3350/1 860.8/1
3350/1 860.8/1
0
1
 
 
 
0
 
860.8
319.2
860.8
Front
100
 
S:100 R:100
 
0
0
0
 
0
 
 
 
0
 
 
0
0
0
0
0
 
 
 
 
0
0
#HDR
-1
-1
#GR
nm
%T
1.0
0.0
2500.000000
-1.000000
2201
8
120.261683
7.138194
#DATA
2500.000000	96.964552
2499.000000	96.688913
2498.000000	96.654575
2497.000000	96.935476
2496.000000	96.624375
2495.000000	96.410995
2494.000000	96.243339
2493.000000	96.291625
2492.000000	96.803125
2491.000000	96.618259
2490.000000	96.498697
2489.000000	96.543476
2488.000000	96.643685
2487.000000	97.169517
2486.000000	96.602340
2485.000000	96.122816
2484.000000	96.167396
2483.000000	96.280973
2482.000000	96.741822
2481.000000	97.056878
2480.000000	96.909817
2479.000000	96.535040
2478.000000	96.708290
2477.000000	97.188093
2476.000000	97.111660
2475.000000	96.344159
2474.000000	96.808623
2473.000000	97.091558
2472.000000	96.676055
2471.000000	97.593593
2470.000000	96.842761
2469.000000	97.095025
2468.000000	96.859269
2467.000000	97.230960
2466.000000	97.081842
2465.000000	96.351476
2464.000000	96.793617
2463.000000	96.446346
2462.000000	96.749667
2461.000000	97.395717
2460.000000	96.646997
2459.000000	97.496211
2458.000000	97.464967
2457.000000	97.494938
2456.000000	97.547572
2455.000000	97.477064
2454.000000	97.016842
2453.000000	96.645309
2452.000000	97.129761
2451.000000	97.851263
2450.000000	97.141048
2449.000000	97.297857
2448.000000	97.290567
2447.000000	97.210828
2446.000000	97.466307
2445.000000	97.394502
2444.000000	96.552737
2443.000000	96.793684
2442.000000	97.711199
2441.000000	97.448982
2440.000000	96.718998
2439.000000	97.324533
2438.000000	97.207521
2437.000000	97.470967
2436.000000	97.548198
2435.000000	97.276395
2434.000000	97.398132
2433.000000	97.773825
2432.000000	97.573183
2431.000000	97.593391
2430.000000	97.786393
2429.000000	97.523866
2428.000000	97.202015
2427.000000	97.614612
2426.000000	97.729538
2425.000000	97.591947
2424.000000	97.517330
2423.000000	97.577017
2422.000000	97.415202
2421.000000	97.510752
2420.000000	97.284940
2419.000000	97.710916
2418.000000	97.935142
2417.000000	97.425385
2416.000000	97.362380
2415.000000	97.786815
2414.000000	97.758905
2413.000000	97.387887
2412.000000	97.630791
2411.000000	97.926717
2410.000000	98.013732
2409.000000	97.937345
2408.000000	98.054540
2407.000000	98.097820
2406.000000	97.756377
2405.000000	97.924647
2404.000000	98.087539
2403.000000	98.105376
2402.000000	97.887500
2401.000000	97.900200
2400.000000	97.507031
2399.000000	97.500867
2398.000000	97.613673
2397.000000	97.662889
2396.000000	97.692135
2395.000000	97.784059
2394.000000	97.894815
2393.000000	97.859651
2392.000000	97.778851
2391.000000	97.611641
2390.000000	98.032975
2389.000000	98.156844
2388.000000	98.061216
2387.000000	97.935512
2386.000000	97.926081
2385.000000	97.840759
2384.000000	97.392814
2383.000000	97.744313
2382.000000	98.053021
2381.000000	98.197573
2380.000000	98.267943
2379.000000	97.872106
2378.000000	97.938433
2377.000000	98.026680
2376.000000	98.113287
2375.000000	98.377312
2374.000000	98.384336
2373.000000	98.134016
2372.000000	97.927713
2371.000000	97.887711
2370.000000	98.160436
2369.000000	98.316704
2368.000000	98.027368
2367.000000	97.905028
2366.000000	97.884602
2365.000000	98.073457
2364.000000	97.999759
2363.000000	97.770310
2362.000000	97.690985
2361.000000	97.944671
2360.000000	98.086075
2359.000000	98.069907
2358.000000	98.030797
2357.000000	97.781753
2356.000000	98.028804
2355.000000	97.887896
2354.000000	97.724304
2353.000000	97.917944
2352.000000	98.276115
2351.000000	98.068220
2350.000000	98.047305
2349.000000	98.038089
2348.000000	97.977076
2347.000000	97.903173
2346.000000	97.667053
2345.000000	97.921674
2344.000000	98.405181
2343.000000	97.990521
2342.000000	98.285005
2341.000000	98.375744
2340.000000	98.018368
2339.000000	97.936746
2338.000000	98.108200
2337.000000	98.245633
2336.000000	98.089609
2335.000000	98.184389
2334.000000	98.291407
2333.000000	97.918585
2332.000000	97.899638
2331.000000	98.050553
2330.000000	98.081293
2329.000000	98.060465
2328.000000	97.943047
2327.000000	98.001539
2326.000000	98.154677
2325.000000	98.271265
2324.000000	97.979947
2323.000000	98.195142
2322.000000	97.844111
2321.000000	98.088445
2320.000000	98.120068
2319.000000	98.101771
2318.000000	97.952941
2317.000000	97.849621
2316.000000	97.881321
2315.000000	97.910868
2314.000000	98.142807
2313.000000	98.188293
2312.000000	98.034899
2311.000000	98.212440
2310.000000	98.173626
2309.000000	98.171187
2308.000000	97.915476
2307.000000	98.145330
2306.000000	98.052170
2305.000000	97.782005
2304.000000	97.925777
2303.000000	97.811328
2302.000000	97.999596
2301.000000	98.179917
2300.000000	98.005069
2299.000000	97.873586
2298.000000	97.984252
2297.000000	98.187023
2296.000000	98.303733
2295.000000	97.928308
2294.000000	98.071838
2293.000000	97.666344
2292.000000	97.935660
2291.000000	98.060464
2290.000000	98.043229
2289.000000	97.858850
2288.000000	97.943833
2287.000000	97.986408
2286.000000	97.975338
2285.000000	98.120707
2284.000000	98.001029
2283.000000	98.023504
2282.000000	98.020191
2281.000000	97.716777
2280.000000	97.858904
2279.000000	97.841129
2278.000000	97.923994
2277.000000	97.973861
2276.000000	97.877742
2275.000000	97.855288
2274.000000	98.068298
2273.000000	97.778772
2272.000000	97.729333
2271.000000	97.554824
2270.000000	97.752839
2269.000000	97.781855
2268.000000	97.718620
2267.000000	97.626854
2266.000000	97.810090
2265.000000	97.819508
2264.000000	97.811027
2263.000000	97.998812
2262.000000	97.855814
2261.000000	97.578070
2260.000000	97.606557
2259.000000	97.686881
2258.000000	97.753714
2257.000000	97.941087
2256.000000	97.894317
2255.000000	97.756239
2254.000000	97.602579
2253.000000	97.819304
2252.000000	97.816052
2251.000000	97.635861
2250.000000	97.867025
2249.000000	97.761644
2248.000000	97.432788
2247.000000	97.548534
2246.000000	97.824501
2245.000000	97.694137
2244.000000	97.672533
2243.000000	97.633341
2242.000000	97.513968
2241.000000	97.856189
2240.000000	97.641824
2239.000000	97.582016
2238.000000	97.712710
2237.000000	97.773507
2236.000000	97.815557
2235.000000	97.719654
2234.000000	97.670254
2233.000000	97.565134
2232.000000	97.684801
2231.000000	97.474704
2230.000000	97.672730
2229.000000	97.537706
2228.000000	97.758412
2227.000000	97.581271
2226.000000	97.490891
2225.000000	97.642750
2224.000000	97.664413
2223.000000	97.648355
2222.000000	97.622676
2221.000000	97.652481
2220.000000	97.684013
2219.000000	97.727856
2218.000000	97.694175
2217.000000	97.602855
2216.000000	97.738935
2215.000000	97.738353
2214.000000	97.663131
2213.000000	97.564000
2212.000000	97.525667
2211.000000	97.663379
2210.000000	97.561661
2209.000000	97.662147
2208.000000	97.843471
2207.000000	97.984110
2206.000000	97.963844
2205.000000	97.775740
2204.000000	97.752307
2203.000000	97.797936
2202.000000	97.970279
2201.000000	97.857421
2200.000000	97.899168
2199.000000	97.942714
2198.000000	97.864018
2197.000000	97.980559
2196.000000	98.084151
2195.000000	97.889751
2194.000000	97.921181
2193.000000	98.076896
2192.000000	98.218592
2191.000000	98.144218
2190.000000	98.119096
2189.000000	98.325070
2188.000000	98.432681
2187.000000	98.289571
2186.000000	98.412851
2185.000000	98.343772
2184.000000	98.456203
2183.000000	98.525833
2182.000000	98.449744
2181.000000	98.481051
2180.000000	98.489324
2179.000000	98.614859
2178.000000	98.644106
2177.000000	98.580532
2176.000000	98.668880
2175.000000	98.649362
2174.000000	98.476255
2173.000000	98.561849
2172.000000	98.675871
2171.000000	98.714569
2170.000000	98.649464
2169.000000	98.663943
2168.000000	98.643034
2167.000000	98.638028
2166.000000	98.806374
2165.000000	98.720701
2164.000000	98.714333
2163.000000	98.812611
2162.000000	99.012138
2161.000000	98.958611
2160.000000	98.836664
2159.000000	98.844696
2158.000000	98.892593
2157.000000	98.803719
2156.000000	98.829859
2155.000000	99.053105
2154.000000	99.184027
2153.000000	99.048326
2152.000000	98.794860
2151.000000	98.834636
2150.000000	99.086584
2149.000000	99.066507
2148.000000	99.079838
2147.000000	99.190299
2146.000000	98.983897
2145.000000	98.886439
2144.000000	98.901674
2143.000000	99.066319
2142.000000	99.188110
2141.000000	99.015500
2140.000000	98.936837
2139.000000	98.932260
2138.000000	98.974877
2137.000000	99.001058
2136.000000	99.024049
2135.000000	98.993781
2134.000000	99.202036
2133.000000	99.268072
2132.000000	99.077579
2131.000000	99.190287
2130.000000	99.184947
2129.000000	99.078131
2128.000000	99.072957
2127.000000	99.104705
2126.000000	99.255674
2125.000000	99.240780
2124.000000	99.098504
2123.000000	99.065803
2122.000000	99.086913
2121.000000	99.085579
2120.000000	99.081306
2119.000000	99.189858
2118.000000	99.279305
2117.000000	99.280843
2116.000000	99.227353
2115.000000	99.173404
2114.000000	99.095010
2113.000000	99.159541
2112.000000	99.266214
2111.000000	99.306718
2110.000000	99.225839
2109.000000	99.213031
2108.000000	99.262349
2107.000000	99.189692
2106.000000	99.210831
2105.000000	99.242325
2104.000000	99.277323
2103.000000	99.293760
2102.000000	99.204210
2101.000000	99.214870
2100.000000	99.252703
2099.000000	99.340024
2098.000000	99.277683
2097.000000	99.206166
2096.000000	99.101926
2095.000000	99.228911
2094.000000	99.273409
2093.000000	99.243185
2092.000000	99.311056
2091.000000	99.231943
2090.000000	99.250978
2089.000000	99.318844
2088.000000	99.289302
2087.000000	99.235035
2086.000000	99.248722
2085.000000	99.362220
2084.000000	99.340299
2083.000000	99.283748
2082.000000	99.366408
2081.000000	99.313675
2080.000000	99.270822
2079.000000	99.315495
2078.000000	99.289818
2077.000000	99.324357
2076.000000	99.260622
2075.000000	99.370239
2074.000000	99.317318
2073.000000	99.347312
2072.000000	99.358122
2071.000000	99.413397
2070.000000	99.358347
2069.000000	99.379951
2068.000000	99.344849
2067.000000	99.425397
2066.000000	99.380798
2065.000000	99.323194
2064.000000	99.209535
2063.000000	99.367571
2062.000000	99.306389
2061.000000	99.265739
2060.000000	99.281409
2059.000000	99.353219
2058.000000	99.309648
2057.000000	99.284639
2056.000000	99.287713
2055.000000	99.347612
2054.000000	99.263927
2053.000000	99.418509
2052.000000	99.454702
2051.000000	99.331282
2050.000000	99.401535
2049.000000	99.422145
2048.000000	99.430933
2047.000000	99.421155
2046.000000	99.446199
2045.000000	99.382836
2044.000000	99.403146
2043.000000	99.332673
2042.000000	99.376844
2041.000000	99.444628
2040.000000	99.356694
2039.000000	99.383460
2038.000000	99.335618
2037.000000	99.330765
2036.000000	99.374840
2035.000000	99.296251
2034.000000	99.404895
2033.000000	99.428446
2032.000000	99.463716
2031.000000	99.506721
2030.000000	99.385038
2029.000000	99.398388
2028.000000	99.312770
2027.000000	99.381560
2026.000000	99.458406
2025.000000	99.440570
2024.000000	99.413300
2023.000000	99.540992
2022.000000	99.481059
2021.000000	99.379693
2020.000000	99.488782
2019.000000	99.486516
2018.000000	99.453230
2017.000000	99.435460
2016.000000	99.503051
2015.000000	99.506472
2014.000000	99.429943
2013.000000	99.408348
2012.000000	99.411363
2011.000000	99.369281
2010.000000	99.465687
2009.000000	99.485498
2008.000000	99.555472
2007.000000	99.424631
2006.000000	99.429937
2005.000000	99.468552
2004.000000	99.474189
2003.000000	99.459813
2002.000000	99.486167
2001.000000	99.459174
2000.000000	99.511130
1999.000000	99.556122
1998.000000	99.464512
1997.000000	99.423459
1996.000000	99.455909
1995.000000	99.462243
1994.000000	99.526359
1993.000000	99.496907
1992.000000	99.465750
1991.000000	99.528967
1990.000000	99.524121
1989.000000	99.513600
1988.000000	99.519760
1987.000000	99.610707
1986.000000	99.509107
1985.000000	99.542587
1984.000000	99.560982
1983.000000	99.524770
1982.000000	99.524308
1981.000000	99.537385
1980.000000	99.532555
1979.000000	99.534538
1978.000000	99.506398
1977.000000	99.500920
1976.000000	99.531785
1975.000000	99.511458
1974.000000	99.526860
1973.000000	99.577851
1972.000000	99.557562
1971.000000	99.504950
1970.000000	99.535175
1969.000000	99.565810
1968.000000	99.586404
1967.000000	99.541422
1966.000000	99.584353
1965.000000	99.573715
1964.000000	99.533650
1963.000000	99.562890
1962.000000	99.612895
1961.000000	99.601404
1960.000000	99.590650
1959.000000	99.636999
1958.000000	99.598138
1957.000000	99.606832
1956.000000	99.606749
1955.000000	99.599478
1954.000000	99.575827
1953.000000	99.601560
1952.000000	99.633598
1951.000000	99.643667
1950.000000	99.629317
1949.000000	99.594031
1948.000000	99.627743
1947.000000	99.670645
1946.000000	99.638820
1945.000000	99.624147
1944.000000	99.653484
1943.000000	99.575786
1942.000000	99.635491
1941.000000	99.590380
1940.000000	99.615004
1939.000000	99.609435
1938.000000	99.657549
1937.000000	99.676183
1936.000000	99.646281
1935.000000	99.591059
1934.000000	99.668134
1933.000000	99.671963
1932.000000	99.741229
1931.000000	99.675738
1930.000000	99.679346
1929.000000	99.645000
1928.000000	99.647024
1927.000000	99.649075
1926.000000	99.606603
1925.000000	99.613596
1924.000000	99.696512
1923.000000	99.700587
1922.000000	99.718152
1921.000000	99.734188
1920.000000	99.762686
1919.000000	99.757713
1918.000000	99.716870
1917.000000	99.694743
1916.000000	99.703715
1915.000000	99.714503
1914.000000	99.694349
1913.000000	99.710974
1912.000000	99.730932
1911.000000	99.775710
1910.000000	99.726272
1909.000000	99.701565
1908.000000	99.758542
1907.000000	99.760017
1906.000000	99.742821
1905.000000	99.790162
1904.000000	99.739189
1903.000000	99.748154
1902.000000	99.764281
1901.000000	99.731827
1900.000000	99.738976
1899.000000	99.793617
1898.000000	99.752790
1897.000000	99.757950
1896.000000	99.741315
1895.000000	99.710287
1894.000000	99.796229
1893.000000	99.755447
1892.000000	99.787340
1891.000000	99.835472
1890.000000	99.737513
1889.000000	99.715971
1888.000000	99.763522
1887.000000	99.794106
1886.000000	99.802113
1885.000000	99.802511
1884.000000	99.805023
1883.000000	99.810897
1882.000000	99.806124
1881.000000	99.760611
1880.000000	99.755286
1879.000000	99.779642
1878.000000	99.786913
1877.000000	99.778314
1876.000000	99.768640
1875.000000	99.784609
1874.000000	99.797168
1873.000000	99.830682
1872.000000	99.844517
1871.000000	99.832612
1870.000000	99.802827
1869.000000	99.768815
1868.000000	99.798463
1867.000000	99.846585
1866.000000	99.842042
1865.000000	99.863078
1864.000000	99.845892
1863.000000	99.832161
1862.000000	99.852969
1861.000000	99.868482
1860.000000	99.853725
1859.000000	99.845275
1858.000000	99.841693
1857.000000	99.855443
1856.000000	99.847505
1855.000000	99.848490
1854.000000	99.856760
1853.000000	99.846361
1852.000000	99.867575
1851.000000	99.897806
1850.000000	99.887257
1849.000000	99.858463
1848.000000	99.895611
1847.000000	99.893358
1846.000000	99.851614
1845.000000	99.877095
1844.000000	99.926871
1843.000000	99.903563
1842.000000	99.913551
1841.000000	99.919996
1840.000000	99.902347
1839.000000	99.897185
1838.000000	99.912961
1837.000000	99.860943
1836.000000	99.900034
1835.000000	99.937155
1834.000000	99.905314
1833.000000	99.893081
1832.000000	99.918931
1831.000000	99.912173
1830.000000	99.898291
1829.000000	99.924342
1828.000000	99.952368
1827.000000	99.953742
1826.000000	99.964318
1825.000000	99.966181
1824.000000	99.966875
1823.000000	99.993531
1822.000000	99.944055
1821.000000	99.950410
1820.000000	99.936802
1819.000000	99.954632
1818.000000	99.943784
1817.000000	100.041704
1816.000000	100.001471
1815.000000	99.965402
1814.000000	99.993824
1813.000000	99.950890
1812.000000	99.970103
1811.000000	99.985001
1810.000000	99.979125
1809.000000	99.951392
1808.000000	99.971092
1807.000000	99.983729
1806.000000	99.993530
1805.000000	100.006373
1804.000000	99.975304
1803.000000	100.000098
1802.000000	99.971383
1801.000000	99.978831
1800.000000	99.999608
1799.000000	100.011076
1798.000000	100.023522
1797.000000	100.019013
1796.000000	99.978441
1795.000000	100.016761
1794.000000	100.027348
1793.000000	100.022053
1792.000000	100.033815
1791.000000	100.020874
1790.000000	99.998628
1789.000000	100.030182
1788.000000	100.027544
1787.000000	100.030387
1786.000000	100.021167
1785.000000	100.048910
1784.000000	100.079898
1783.000000	100.054099
1782.000000	100.043020
1781.000000	100.082641
1780.000000	100.093920
1779.000000	100.028814
1778.000000	100.103617
1777.000000	100.098925
1776.000000	100.075276
1775.000000	100.079021
1774.000000	100.075576
1773.000000	100.091483
1772.000000	100.082527
1771.000000	100.050857
1770.000000	100.142292
1769.000000	100.071753
1768.000000	100.121769
1767.000000	100.104912
1766.000000	100.117839
1765.000000	100.118029
1764.000000	100.132547
1763.000000	100.158833
1762.000000	100.154431
1761.000000	100.114701
1760.000000	100.125958
1759.000000	100.139933
1758.000000	100.166092
1757.000000	100.151795
1756.000000	100.124308
1755.000000	100.149452
1754.000000	100.167413
1753.000000	100.127059
1752.000000	100.113721
1751.000000	100.170126
1750.000000	100.164118
1749.000000	100.176514
1748.000000	100.175126
1747.000000	100.175121
1746.000000	100.163654
1745.000000	100.155524
1744.000000	100.180728
1743.000000	100.171076
1742.000000	100.187125
1741.000000	100.176889
1740.000000	100.196221
1739.000000	100.212440
1738.000000	100.219793
1737.000000	100.168466
1736.000000	100.193298
1735.000000	100.198735
1734.000000	100.204950
1733.000000	100.200761
1732.000000	100.202313
1731.000000	100.191131
1730.000000	100.202032
1729.000000	100.206361
1728.000000	100.203745
1727.000000	100.241884
1726.000000	100.252849
1725.000000	100.269280
1724.000000	100.271017
1723.000000	100.224866
1722.000000	100.238908
1721.000000	100.250092
1720.000000	100.248423
1719.000000	100.260795
1718.000000	100.257981
1717.000000	100.261043
1716.000000	100.261558
1715.000000	100.258650
1714.000000	100.274600
1713.000000	100.265808
1712.000000	100.268208
1711.000000	100.284613
1710.000000	100.297148
1709.000000	100.281435
1708.000000	100.296734
1707.000000	100.270188
1706.000000	100.286802
1705.000000	100.289669
1704.000000	100.298305
1703.000000	100.301799
1702.000000	100.300056
1701.000000	100.282551
1700.000000	100.298080
1699.000000	100.306401
1698.000000	100.317797
1697.000000	100.308392
1696.000000	100.306511
1695.000000	100.303531
1694.000000	100.294274
1693.000000	100.319715
1692.000000	100.324418
1691.000000	100.315180
1690.000000	100.313834
1689.000000	100.303710
1688.000000	100.290809
1687.000000	100.300603
1686.000000	100.324304
1685.000000	100.343486
1684.000000	100.347295
1683.000000	100.350807
1682.000000	100.332137
1681.000000	100.344534
1680.000000	100.367313
1679.000000	100.357138
1678.000000	100.348355
1677.000000	100.351983
1676.000000	100.361755
1675.000000	100.346726
1674.000000	100.359725
1673.000000	100.390596
1672.000000	100.392914
1671.000000	100.376894
1670.000000	100.389731
1669.000000	100.373031
